TimeStamp,Delta_TP9,Delta_AF7,Delta_AF8,Delta_TP10,Theta_TP9,Theta_AF7,Theta_AF8,Theta_TP10,Alpha_TP9,Alpha_AF7,Alpha_AF8,Alpha_TP10,Beta_TP9,Beta_AF7,Beta_AF8,Beta_TP10,Gamma_TP9,Gamma_AF7,Gamma_AF8,Gamma_TP10,RAW_TP9,RAW_AF7,RAW_AF8,RAW_TP10,AUX_RIGHT,Accelerometer_X,Accelerometer_Y,Accelerometer_Z,Gyro_X,Gyro_Y,Gyro_Z,HeadBandOn,HSI_TP9,HSI_AF7,HSI_AF8,HSI_TP10,Battery,Elements
2020-03-09 16:12:37.044,0.9770908,0.0,-1.2951279,0.3337837,0.38745475,0.0,-2.138334,0.48509553,0.65683967,0.0,-1.137125,0.50230855,0.088331476,0.0,-1.245972,0.42325205,0.120203696,0.0,-1.3853976,0.083406635,822.381,1041.5751,866.30035,808.68134,817.5458,-0.07080078125,0.09320068359375,1.00677490234375,2.03369140625,-5.151519775390625,-0.889739990234375,1,1.0,4.0,2.0,1.0,65.00
2020-03-09 16:12:39.066,0.73213077,0.0,-1.2951279,0.3337837,0.32599205,0.0,-2.138334,0.48509553,0.19562761,0.0,-1.137125,0.50230855,0.059653427,0.0,-1.245972,0.42325205,0.16258818,0.0,-1.3853976,0.083406635,849.7802,748.24176,667.6557,846.9597,859.45056,-0.07861328125,0.08935546875,1.00628662109375,2.115936279296875,-4.822540283203125,-1.009368896484375,1,1.0,4.0,2.0,1.0,65.00
2020-03-09 16:12:40.056,,,,,,,,,,,,,,,,,,,,,,,,,,,,,,,,,,,,,,/muse/elements/jaw_clench
2020-03-09 16:12:40.160,,,,,,,,,,,,,,,,,,,,,,,,,,,,,,,,,,,,,,/muse/elements/blink
2020-03-09 16:12:41.102,1.2004882,0.0,-1.2951279,1.095787,0.8404836,0.0,-2.138334,0.9341798,0.71065545,0.0,-1.137125,0.45378068,0.32370588,0.0,-1.245972,0.252032,0.106519915,0.0,-1.3853976,0.048611045,852.1978,1095.1648,939.2308,834.0659,881.6117,-0.0740966796875,0.09393310546875,1.00689697265625,2.64678955078125,-5.121612548828125,-0.755157470703125,1,1.0,4.0,2.0,1.0,65.00
2020-03-09 16:12:41.793,,,,,,,,,,,,,,,,,,,,,,,,,,,,,,,,,,,,,,/muse/elements/blink
2020-03-09 16:12:43.108,0.4635126,0.0,-1.2951279,0.01244727,0.30968222,0.0,-2.138334,0.2958926,0.3537873,0.0,-1.137125,0.40797183,0.33465534,0.0,-1.245972,0.5046609,0.056740012,0.0,-1.3853976,0.25567964,765.16486,670.87915,562.49084,766.3736,603.9927,-0.07269287109375,0.0919189453125,1.0030517578125,2.041168212890625,-5.06927490234375,-1.323394775390625,1,1.0,4.0,2.0,1.0,65.00
2020-03-09 16:12:45.113,0.9682464,0.0,-1.2951279,0.82553005,0.55554664,0.0,-2.138334,0.54735583,0.83173335,0.0,-1.137125,0.97018,0.49118084,0.0,-1.245972,0.35902473,-0.07486202,0.0,-1.3853976,-0.14989723,867.50916,1116.1172,1006.52014,852.6007,946.8865,-0.0762939453125,0.0869140625,1.0040283203125,2.49725341796875,-5.21881103515625,-0.650482177734375,1,1.0,4.0,2.0,1.0,65.00
2020-03-09 16:12:47.124,0.6528229,0.0,-1.2951279,0.38198745,0.75989354,0.0,-2.138334,0.6450281,0.29689112,0.0,-1.137125,0.44386736,0.22507982,0.0,-1.245972,0.3315652,-0.04631143,0.0,-1.3853976,-0.12510009,788.5348,630.58606,493.58975,788.5348,706.337,-0.06683349609375,0.09051513671875,1.0115966796875,2.1832275390625,-4.867401123046875,-1.443023681640625,1,1.0,4.0,2.0,1.0,65.00
2020-03-09 16:12:47.233,,,,,,,,,,,,,,,,,,,,,,,,,,,,,,,,,,,,,,/muse/elements/blink
2020-03-09 16:12:49.130,0.5357879,0.0,-1.2951279,0.73790944,0.1603194,0.0,-2.138334,0.3709317,0.4755083,0.0,-1.137125,0.4147004,0.6009266,0.0,-1.245972,0.5059938,0.31889367,0.0,-1.3853976,0.3162048,737.76556,426.30035,395.67764,754.2857,661.6117,-0.07757568359375,0.08843994140625,1.010986328125,2.1234130859375,-5.121612548828125,-0.979461669921875,1,1.0,4.0,2.0,1.0,65.00
2020-03-09 16:12:49.810,,,,,,,,,,,,,,,,,,,,,,,,,,,,,,,,,,,,,,/muse/elements/jaw_clench
2020-03-09 16:12:49.895,,,,,,,,,,,,,,,,,,,,,,,,,,,,,,,,,,,,,,/muse/elements/jaw_clench
2020-03-09 16:12:51.146,0.73748344,0.0,-1.2951279,0.81689423,0.5091315,0.0,-2.138334,0.48294428,0.7101438,0.0,-1.137125,0.65751576,0.37402818,0.0,-1.245972,0.37667975,0.105234265,0.0,-1.3853976,0.08747872,830.0366,1013.7729,895.31134,826.8132,902.5641,-0.0704345703125,0.09185791015625,1.00616455078125,2.52716064453125,-4.8150634765625,-1.06170654296875,1,1.0,4.0,2.0,1.0,65.00
2020-03-09 16:12:51.570,,,,,,,,,,,,,,,,,,,,,,,,,,,,,,,,,,,,,,/muse/elements/jaw_clench
2020-03-09 16:12:52.704,,,,,,,,,,,,,,,,,,,,,,,,,,,,,,,,,,,,,,/muse/elements/jaw_clench
2020-03-09 16:12:52.876,,,,,,,,,,,,,,,,,,,,,,,,,,,,,,,,,,,,,,/muse/elements/jaw_clench
2020-03-09 16:12:53.183,0.72181356,0.0,-1.2951279,0.81420463,0.43628123,0.0,-2.138334,0.4677442,0.4799055,0.0,-1.137125,0.56937236,0.2340685,0.0,-1.245972,0.32285592,0.03768,0.0,-1.3853976,-0.16190259,845.7509,886.4469,755.09155,830.4396,796.1905,-0.07183837890625,0.08929443359375,1.0048828125,1.966400146484375,-5.316009521484375,-1.457977294921875,1,1.0,4.0,2.0,1.0,65.00
2020-03-09 16:12:54.077,,,,,,,,,,,,,,,,,,,,,,,,,,,,,,,,,,,,,,/muse/elements/jaw_clench
2020-03-09 16:12:54.803,,,,,,,,,,,,,,,,,,,,,,,,,,,,,,,,,,,,,,/muse/elements/jaw_clench
2020-03-09 16:12:54.970,,,,,,,,,,,,,,,,,,,,,,,,,,,,,,,,,,,,,,/muse/elements/jaw_clench
2020-03-09 16:12:55.226,0.797419,0.0,-1.2951279,0.7231713,0.44992992,0.0,-2.138334,0.37775028,0.3723698,0.0,-1.137125,0.6029481,0.32171834,0.0,-1.245972,0.29565686,-0.0661126,0.0,-1.3853976,0.10946418,765.9707,574.57874,414.6154,769.59705,561.28204,-0.0693359375,0.08837890625,1.0074462890625,2.160797119140625,-5.45806884765625,-0.8673095703125,1,1.0,4.0,2.0,1.0,65.00
2020-03-09 16:12:57.270,0.5427556,0.0,-1.2951279,0.2989569,0.42970493,0.0,-2.138334,0.22533137,0.58083695,0.0,-1.137125,0.5762182,0.1500381,0.0,-1.245972,0.18269865,-0.2103501,0.0,-1.3853976,-0.048651543,757.9121,325.56778,253.84616,767.1795,750.65936,-0.068603515625,0.08941650390625,1.00714111328125,2.145843505859375,-5.4132080078125,-0.889739990234375,1,1.0,4.0,2.0,1.0,65.00
2020-03-09 16:12:57.779,,,,,,,,,,,,,,,,,,,,,,,,,,,,,,,,,,,,,,/muse/elements/jaw_clench
2020-03-09 16:12:58.050,,,,,,,,,,,,,,,,,,,,,,,,,,,,,,,,,,,,,,/muse/elements/jaw_clench
2020-03-09 16:12:59.156,,,,,,,,,,,,,,,,,,,,,,,,,,,,,,,,,,,,,,/muse/elements/jaw_clench
2020-03-09 16:12:59.308,0.5605392,0.0,-1.2951279,0.34861487,0.6405024,0.0,-2.138334,0.5555211,0.5894957,0.0,-1.137125,0.5410082,0.28681877,0.0,-1.245972,0.30688983,-0.20014514,0.0,-1.3853976,-0.19534187,809.4872,817.5458,631.79486,801.8315,648.71796,-0.06781005859375,0.09075927734375,1.0111083984375,2.489776611328125,-5.562744140625,-1.016845703125,1,1.0,4.0,2.0,1.0,65.00
2020-03-09 16:12:59.987,,,,,,,,,,,,,,,,,,,,,,,,,,,,,,,,,,,,,,/muse/elements/jaw_clench
2020-03-09 16:13:01.327,0.82205033,0.0,-1.2951279,0.704696,0.34638083,0.0,-2.138334,0.3366302,0.6265587,0.0,-1.137125,0.6031796,0.2983419,0.0,-1.245972,0.26716226,-0.075525254,0.0,-1.3853976,-0.014206175,745.82416,336.84982,254.24908,761.9414,647.1062,-0.068115234375,0.09283447265625,1.01397705078125,2.086029052734375,-5.42816162109375,-0.8074951171875,1,1.0,4.0,2.0,1.0,65.00
2020-03-09 16:13:01.595,,,,,,,,,,,,,,,,,,,,,,,,,,,,,,,,,,,,,,/muse/elements/jaw_clench
2020-03-09 16:13:03.295,,,,,,,,,,,,,,,,,,,,,,,,,,,,,,,,,,,,,,/muse/elements/jaw_clench
2020-03-09 16:13:03.332,0.861604,0.0,-1.2951279,0.768868,0.2695786,0.0,-2.138334,0.33062336,0.46253866,0.0,-1.137125,0.6851502,0.29324943,0.0,-1.245972,0.41107032,-0.010216782,0.0,-1.3853976,-0.07432308,748.6447,452.49084,340.07327,767.1795,623.73627,-0.063720703125,0.09234619140625,1.00933837890625,2.370147705078125,-5.286102294921875,-0.829925537109375,1,1.0,4.0,2.0,1.0,65.00
2020-03-09 16:13:05.338,0.9201081,0.0,-1.2951279,0.7893446,0.63185114,0.0,-2.138334,0.6156929,0.9040122,0.0,-1.137125,0.8369685,0.21606456,0.0,-1.245972,0.4434618,-0.0749236,0.0,-1.3853976,-0.08272201,859.85345,1077.8389,946.4835,851.39197,865.4945,-0.06640625,0.0928955078125,1.0057373046875,2.22808837890625,-5.316009521484375,-1.024322509765625,1,1.0,4.0,2.0,1.0,65.00
2020-03-09 16:13:05.568,,,,,,,,,,,,,,,,,,,,,,,,,,,,,,,,,,,,,,/muse/elements/jaw_clench
2020-03-09 16:13:05.702,,,,,,,,,,,,,,,,,,,,,,,,,,,,,,,,,,,,,,/muse/elements/blink
2020-03-09 16:13:06.436,,,,,,,,,,,,,,,,,,,,,,,,,,,,,,,,,,,,,,/muse/elements/jaw_clench
2020-03-09 16:13:07.356,0.6300636,0.0,-1.2951279,0.6213922,0.6698778,0.0,-2.138334,0.7583225,0.22740945,0.0,-1.137125,0.43607023,0.04333047,0.0,-1.245972,0.34437236,0.070688814,0.0,-1.3853976,-0.034127843,801.4286,654.7619,526.2271,797.3993,713.1868,-0.0623779296875,0.0953369140625,1.00933837890625,2.22808837890625,-5.39825439453125,-1.353302001953125,1,1.0,4.0,2.0,1.0,65.00
2020-03-09 16:13:07.566,,,,,,,,,,,,,,,,,,,,,,,,,,,,,,,,,,,,,,/muse/elements/jaw_clench
2020-03-09 16:13:08.215,,,,,,,,,,,,,,,,,,,,,,,,,,,,,,,,,,,,,,/muse/elements/jaw_clench
2020-03-09 16:13:08.908,,,,,,,,,,,,,,,,,,,,,,,,,,,,,,,,,,,,,,/muse/elements/jaw_clench
2020-03-09 16:13:09.239,,,,,,,,,,,,,,,,,,,,,,,,,,,,,,,,,,,,,,/muse/elements/jaw_clench
2020-03-09 16:13:09.379,0.7736092,0.0,-1.2951279,0.8947618,0.26629436,0.0,-2.138334,0.6096488,0.6683322,0.0,-1.137125,0.850631,0.18897091,0.0,-1.245972,0.22924083,-0.3748863,0.0,-1.3853976,-0.010724995,742.1978,762.74725,601.5751,762.3443,635.0183,-0.06353759765625,0.0885009765625,1.0081787109375,2.654266357421875,-5.151519775390625,-1.128997802734375,1,1.0,4.0,2.0,1.0,65.00
2020-03-09 16:13:09.480,,,,,,,,,,,,,,,,,,,,,,,,,,,,,,,,,,,,,,/muse/elements/jaw_clench
2020-03-09 16:13:10.136,,,,,,,,,,,,,,,,,,,,,,,,,,,,,,,,,,,,,,/muse/elements/jaw_clench
2020-03-09 16:13:10.534,,,,,,,,,,,,,,,,,,,,,,,,,,,,,,,,,,,,,,/muse/elements/jaw_clench
2020-03-09 16:13:11.162,,,,,,,,,,,,,,,,,,,,,,,,,,,,,,,,,,,,,,/muse/elements/jaw_clench
2020-03-09 16:13:11.396,,,,,,,,,,,,,,,,,,,,,,,,,,,,,,,,,,,,,,/muse/elements/jaw_clench
2020-03-09 16:13:11.397,0.40421954,0.0,-1.2951279,0.3577737,0.4539459,0.0,-2.138334,0.38173497,0.5440348,0.0,-1.137125,0.37190238,0.31851164,0.0,-1.245972,0.16521718,-0.027637063,0.0,-1.3853976,-0.036576863,762.74725,227.65567,188.97437,775.2381,775.2381,-0.06494140625,0.09381103515625,1.00714111328125,2.22808837890625,-5.03936767578125,-0.456085205078125,1,1.0,4.0,2.0,1.0,65.00
2020-03-09 16:13:11.923,,,,,,,,,,,,,,,,,,,,,,,,,,,,,,,,,,,,,,/muse/elements/jaw_clench
2020-03-09 16:13:12.452,,,,,,,,,,,,,,,,,,,,,,,,,,,,,,,,,,,,,,/muse/elements/jaw_clench
2020-03-09 16:13:12.792,,,,,,,,,,,,,,,,,,,,,,,,,,,,,,,,,,,,,,/muse/elements/jaw_clench
2020-03-09 16:13:13.287,,,,,,,,,,,,,,,,,,,,,,,,,,,,,,,,,,,,,,/muse/elements/jaw_clench
2020-03-09 16:13:13.422,0.60340255,0.0,-1.2951279,0.6607326,0.683141,0.0,-2.138334,0.80450207,0.4217958,0.0,-1.137125,0.7246623,0.22886239,0.0,-1.245972,0.14352995,-0.086923085,0.0,-1.3853976,-0.015089195,851.39197,145.45787,285.27472,844.1392,1313.1501,-0.06036376953125,0.09075927734375,1.00640869140625,2.25799560546875,-5.091705322265625,-1.024322509765625,1,1.0,4.0,2.0,1.0,65.00
2020-03-09 16:13:13.669,,,,,,,,,,,,,,,,,,,,,,,,,,,,,,,,,,,,,,/muse/elements/jaw_clench
2020-03-09 16:13:14.377,,,,,,,,,,,,,,,,,,,,,,,,,,,,,,,,,,,,,,/muse/elements/jaw_clench
2020-03-09 16:13:14.878,,,,,,,,,,,,,,,,,,,,,,,,,,,,,,,,,,,,,,/muse/elements/jaw_clench
2020-03-09 16:13:15.291,,,,,,,,,,,,,,,,,,,,,,,,,,,,,,,,,,,,,,/muse/elements/jaw_clench
2020-03-09 16:13:15.492,0.6594245,0.0,-1.2951279,0.666306,0.3448146,0.0,-2.138334,0.09889644,0.6812204,0.0,-1.137125,0.46467006,0.32553437,0.0,-1.245972,0.32757074,-0.16937368,0.0,-1.3853976,-0.0806032,802.23444,855.0183,712.7839,795.78754,666.04395,-0.06341552734375,0.09234619140625,1.00750732421875,2.37762451171875,-5.0543212890625,-0.49346923828125,1,1.0,4.0,2.0,1.0,65.00
2020-03-09 16:13:16.886,,,,,,,,,,,,,,,,,,,,,,,,,,,,,,,,,,,,,,/muse/elements/jaw_clench
2020-03-09 16:13:17.533,0.34313896,0.0,-1.2951279,0.3935962,0.22065856,0.0,-2.138334,0.29140535,0.6202139,0.0,-1.137125,0.38100335,0.2908531,0.0,-1.245972,0.19244933,-0.061919004,0.0,-1.3853976,-0.086526275,824.7985,819.15753,776.8498,817.5458,770.40295,-0.05352783203125,0.09088134765625,1.00909423828125,2.190704345703125,-5.196380615234375,-0.665435791015625,1,1.0,4.0,2.0,1.0,65.00
2020-03-09 16:13:17.855,,,,,,,,,,,,,,,,,,,,,,,,,,,,,,,,,,,,,,/muse/elements/jaw_clench
2020-03-09 16:13:19.347,,,,,,,,,,,,,,,,,,,,,,,,,,,,,,,,,,,,,,/muse/elements/jaw_clench
2020-03-09 16:13:19.551,0.30728456,0.0,-1.2951279,0.37924597,0.09082071,0.0,-2.138334,0.23857787,0.35576117,0.0,-1.137125,0.5629522,0.1703657,0.0,-1.245972,0.13994952,-0.2479015,0.0,-1.3853976,-0.11627352,758.315,533.47986,412.60074,761.53845,732.52747,-0.06048583984375,0.08526611328125,1.0103759765625,2.452392578125,-4.80010986328125,-1.039276123046875,1,1.0,4.0,2.0,1.0,65.00
2020-03-09 16:13:20.101,,,,,,,,,,,,,,,,,,,,,,,,,,,,,,,,,,,,,,/muse/elements/jaw_clench
2020-03-09 16:13:21.077,,,,,,,,,,,,,,,,,,,,,,,,,,,,,,,,,,,,,,/muse/elements/jaw_clench
2020-03-09 16:13:21.434,,,,,,,,,,,,,,,,,,,,,,,,,,,,,,,,,,,,,,/muse/elements/jaw_clench
2020-03-09 16:13:21.559,0.36856112,0.0,-1.2951279,0.38948393,0.5769336,0.0,-2.138334,0.55747074,0.954933,0.0,-1.137125,0.8329066,0.32278395,0.0,-1.245972,0.3759825,-0.07306501,0.0,-1.3853976,-0.13455668,785.7143,480.29303,430.32968,784.5055,679.34064,-0.0460205078125,0.09600830078125,1.0133056640625,1.622467041015625,-5.390777587890625,-0.964508056640625,1,1.0,4.0,2.0,1.0,65.00
2020-03-09 16:13:21.695,,,,,,,,,,,,,,,,,,,,,,,,,,,,,,,,,,,,,,/muse/elements/jaw_clench
2020-03-09 16:13:22.697,,,,,,,,,,,,,,,,,,,,,,,,,,,,,,,,,,,,,,/muse/elements/jaw_clench
2020-03-09 16:13:23.233,,,,,,,,,,,,,,,,,,,,,,,,,,,,,,,,,,,,,,/muse/elements/jaw_clench
2020-03-09 16:13:23.561,0.6934257,0.0,-1.2951279,0.48999208,0.58692175,0.0,-2.138334,0.44886452,0.5273957,0.0,-1.137125,0.61200416,0.24723208,0.0,-1.245972,0.3147895,-0.029892407,0.0,-1.3853976,-0.07041023,758.315,635.0183,497.61905,774.83514,657.5824,-0.04644775390625,0.08880615234375,1.00933837890625,2.205657958984375,-5.600128173828125,-0.6280517578125,1,1.0,4.0,2.0,1.0,65.00
2020-03-09 16:13:23.601,,,,,,,,,,,,,,,,,,,,,,,,,,,,,,,,,,,,,,/muse/elements/jaw_clench
2020-03-09 16:13:25.609,0.8738146,0.0,-1.2951279,1.0658954,0.5125444,0.0,-2.138334,0.55771965,0.33744952,0.0,-1.137125,0.48689198,0.060500327,0.0,-1.245972,0.3963426,-0.21381804,0.0,-1.3853976,-0.041744515,824.3956,1217.6556,1125.3846,828.8278,823.1868,-0.04669189453125,0.09710693359375,1.0062255859375,2.325286865234375,-5.0543212890625,-1.016845703125,1,1.0,4.0,2.0,1.0,65.00
2020-03-09 16:13:25.671,,,,,,,,,,,,,,,,,,,,,,,,,,,,,,,,,,,,,,/muse/elements/jaw_clench
2020-03-09 16:13:25.887,,,,,,,,,,,,,,,,,,,,,,,,,,,,,,,,,,,,,,/muse/elements/jaw_clench
2020-03-09 16:13:26.211,,,,,,,,,,,,,,,,,,,,,,,,,,,,,,,,,,,,,,/muse/elements/jaw_clench
2020-03-09 16:13:26.914,,,,,,,,,,,,,,,,,,,,,,,,,,,,,,,,,,,,,,/muse/elements/jaw_clench
2020-03-09 16:13:27.056,,,,,,,,,,,,,,,,,,,,,,,,,,,,,,,,,,,,,,/muse/elements/jaw_clench
2020-03-09 16:13:27.640,0.36605197,0.0,-1.2951279,0.29429126,0.5865406,0.0,-2.138334,0.5121606,0.45283952,0.0,-1.137125,0.6910056,0.43306932,0.0,-1.245972,0.39157742,-0.050350457,0.0,-1.3853976,-0.13206494,769.59705,662.01465,604.3956,776.8498,922.3077,-0.048095703125,0.0909423828125,1.005615234375,2.235565185546875,-4.44122314453125,-0.829925537109375,1,1.0,4.0,2.0,1.0,65.00
2020-03-09 16:13:27.923,,,,,,,,,,,,,,,,,,,,,,,,,,,,,,,,,,,,,,/muse/elements/jaw_clench
2020-03-09 16:13:28.398,,,,,,,,,,,,,,,,,,,,,,,,,,,,,,,,,,,,,,/muse/elements/jaw_clench
2020-03-09 16:13:29.680,0.32863972,0.0,-1.2951279,0.29567403,0.05516426,0.0,-2.138334,0.10117872,0.4327156,0.0,-1.137125,0.3222583,0.29508916,0.0,-1.245972,0.20953867,-0.24355169,0.0,-1.3853976,-0.22347711,807.0696,610.84247,494.3956,792.5641,736.1539,-0.0438232421875,0.09228515625,1.0086669921875,2.355194091796875,-4.8748779296875,-1.024322509765625,1,1.0,4.0,2.0,1.0,65.00
2020-03-09 16:13:29.816,,,,,,,,,,,,,,,,,,,,,,,,,,,,,,,,,,,,,,/muse/elements/jaw_clench
2020-03-09 16:13:30.491,,,,,,,,,,,,,,,,,,,,,,,,,,,,,,,,,,,,,,/muse/elements/jaw_clench
2020-03-09 16:13:31.067,,,,,,,,,,,,,,,,,,,,,,,,,,,,,,,,,,,,,,/muse/elements/jaw_clench
2020-03-09 16:13:31.698,-0.040197734,0.0,-1.2951279,-0.21470304,0.17625315,0.0,-2.138334,0.33548588,0.49405584,0.0,-1.137125,0.8063299,0.25122124,0.0,-1.245972,0.4124581,-0.03518629,0.0,-1.3853976,0.13300619,832.4542,817.1429,740.989,816.7399,732.52747,-0.0419921875,0.0927734375,1.0113525390625,2.27294921875,-5.495452880859375,-0.904693603515625,1,1.0,4.0,2.0,1.0,60.00
2020-03-09 16:13:32.864,,,,,,,,,,,,,,,,,,,,,,,,,,,,,,,,,,,,,,/muse/elements/jaw_clench
2020-03-09 16:13:33.301,,,,,,,,,,,,,,,,,,,,,,,,,,,,,,,,,,,,,,/muse/elements/jaw_clench
2020-03-09 16:13:33.475,,,,,,,,,,,,,,,,,,,,,,,,,,,,,,,,,,,,,,/muse/elements/jaw_clench
2020-03-09 16:13:33.717,0.19773625,0.0,-1.2951279,0.31331807,0.6179309,0.0,-2.138334,0.62839437,0.64593816,0.0,-1.137125,0.6215936,0.12862933,0.0,-1.245972,0.031571776,-0.15693004,0.0,-1.3853976,-0.2666071,755.89746,0.0,0.0,766.77655,986.3736,-0.035888671875,0.09130859375,1.00677490234375,1.816864013671875,-4.78515625,-0.949554443359375,1,1.0,4.0,2.0,1.0,60.00
2020-03-09 16:13:33.796,,,,,,,,,,,,,,,,,,,,,,,,,,,,,,,,,,,,,,/muse/elements/jaw_clench
2020-03-09 16:13:33.997,,,,,,,,,,,,,,,,,,,,,,,,,,,,,,,,,,,,,,/muse/elements/jaw_clench
2020-03-09 16:13:34.330,,,,,,,,,,,,,,,,,,,,,,,,,,,,,,,,,,,,,,/muse/elements/jaw_clench
2020-03-09 16:13:35.113,,,,,,,,,,,,,,,,,,,,,,,,,,,,,,,,,,,,,,/muse/elements/jaw_clench
2020-03-09 16:13:35.344,,,,,,,,,,,,,,,,,,,,,,,,,,,,,,,,,,,,,,/muse/elements/jaw_clench
2020-03-09 16:13:35.641,,,,,,,,,,,,,,,,,,,,,,,,,,,,,,,,,,,,,,/muse/elements/jaw_clench
2020-03-09 16:13:35.745,0.23161231,0.0,-1.2951279,0.20713238,0.45785856,0.0,-2.138334,0.38355422,0.72562456,0.0,-1.137125,0.49313805,0.29534414,0.0,-1.245972,0.29859808,-0.05719647,0.0,-1.3853976,0.006081483,747.8388,699.0842,549.59705,762.74725,554.83514,-0.0445556640625,0.0904541015625,1.00897216796875,2.355194091796875,-5.420684814453125,-0.79254150390625,1,1.0,4.0,2.0,1.0,60.00
2020-03-09 16:13:36.044,,,,,,,,,,,,,,,,,,,,,,,,,,,,,,,,,,,,,,/muse/elements/blink
2020-03-09 16:13:36.859,,,,,,,,,,,,,,,,,,,,,,,,,,,,,,,,,,,,,,/muse/elements/jaw_clench
2020-03-09 16:13:37.426,,,,,,,,,,,,,,,,,,,,,,,,,,,,,,,,,,,,,,/muse/elements/jaw_clench
2020-03-09 16:13:37.663,,,,,,,,,,,,,,,,,,,,,,,,,,,,,,,,,,,,,,/muse/elements/jaw_clench
2020-03-09 16:13:37.787,0.6283145,0.0,-1.2951279,0.5957548,0.626951,0.0,-2.138334,0.60488844,0.65024,0.0,-1.137125,0.59222484,0.29243857,0.0,-1.245972,0.28057024,-0.06533218,0.0,-1.3853976,0.008292304,824.7985,796.5934,722.0513,826.8132,1021.8315,-0.04034423828125,0.08935546875,1.00604248046875,2.61688232421875,-4.62066650390625,-1.12152099609375,1,1.0,4.0,2.0,1.0,60.00
2020-03-09 16:13:38.855,,,,,,,,,,,,,,,,,,,,,,,,,,,,,,,,,,,,,,/muse/elements/jaw_clench
2020-03-09 16:13:39.802,-0.1259585,0.0,-1.2951279,0.7498707,-0.0064855553,0.0,-2.138334,0.6007081,0.27945098,0.0,-1.137125,0.30913854,0.2791284,0.0,-1.245972,0.34610674,0.16014536,0.0,-1.3853976,0.10251492,780.07324,1081.4652,909.41394,794.57874,772.4176,-0.0352783203125,0.0921630859375,1.01214599609375,2.332763671875,-4.32159423828125,-1.0467529296875,1,1.0,4.0,2.0,1.0,60.00
2020-03-09 16:13:40.000,,,,,,,,,,,,,,,,,,,,,,,,,,,,,,,,,,,,,,/muse/elements/jaw_clench
2020-03-09 16:13:40.233,,,,,,,,,,,,,,,,,,,,,,,,,,,,,,,,,,,,,,/muse/elements/jaw_clench
2020-03-09 16:13:41.432,,,,,,,,,,,,,,,,,,,,,,,,,,,,,,,,,,,,,,/muse/elements/jaw_clench
2020-03-09 16:13:41.812,0.8775916,0.0,-1.2951279,0.8023568,0.45425278,0.0,-2.138334,0.35526896,0.3861058,0.0,-1.137125,0.48862413,0.0872963,0.0,-1.245972,0.13126658,-0.08761296,0.0,-1.3853976,-0.25082716,855.42126,1165.2748,1039.5604,828.8278,863.0769,-0.03668212890625,0.08990478515625,1.00823974609375,2.295379638671875,-4.50103759765625,-0.814971923828125,1,1.0,4.0,2.0,1.0,65.00
2020-03-09 16:13:42.295,,,,,,,,,,,,,,,,,,,,,,,,,,,,,,,,,,,,,,/muse/elements/jaw_clench
2020-03-09 16:13:43.115,,,,,,,,,,,,,,,,,,,,,,,,,,,,,,,,,,,,,,/muse/elements/jaw_clench
2020-03-09 16:13:43.828,0.05149855,0.0,-1.2951279,0.034784924,0.11737524,0.0,-2.138334,0.32787895,0.35492167,0.0,-1.137125,0.53834677,0.13532574,0.0,-1.245972,0.24271804,-0.21887407,0.0,-1.3853976,-0.19285992,825.6044,675.31134,621.7216,817.1429,709.15753,-0.03289794921875,0.09161376953125,1.00653076171875,2.684173583984375,-5.60760498046875,-0.560760498046875,1,1.0,4.0,2.0,1.0,65.00
2020-03-09 16:13:43.966,,,,,,,,,,,,,,,,,,,,,,,,,,,,,,,,,,,,,,/muse/elements/jaw_clench
2020-03-09 16:13:45.208,,,,,,,,,,,,,,,,,,,,,,,,,,,,,,,,,,,,,,/muse/elements/jaw_clench
2020-03-09 16:13:45.837,-0.14592214,0.0,-1.2951279,0.119694985,0.20535228,0.0,-2.138334,0.40808037,0.4745568,0.0,-1.137125,0.5969745,0.23289062,0.0,-1.245972,0.26029363,-0.05203925,0.0,-1.3853976,-0.14179629,732.52747,507.28937,466.99634,743.4066,632.1978,-0.0408935546875,0.08843994140625,1.0101318359375,2.10845947265625,-4.725341796875,-0.70281982421875,1,1.0,4.0,2.0,1.0,65.00
2020-03-09 16:13:46.181,,,,,,,,,,,,,,,,,,,,,,,,,,,,,,,,,,,,,,/muse/elements/jaw_clench
2020-03-09 16:13:46.356,,,,,,,,,,,,,,,,,,,,,,,,,,,,,,,,,,,,,,/muse/elements/jaw_clench
2020-03-09 16:13:47.010,,,,,,,,,,,,,,,,,,,,,,,,,,,,,,,,,,,,,,/muse/elements/jaw_clench
2020-03-09 16:13:47.496,,,,,,,,,,,,,,,,,,,,,,,,,,,,,,,,,,,,,,/muse/elements/jaw_clench
2020-03-09 16:13:47.902,0.6905703,0.0,-1.2951279,0.67351234,0.60709685,0.0,-2.138334,0.28816688,0.44157666,0.0,-1.137125,0.5653114,0.23483254,0.0,-1.245972,0.39531577,-0.21077435,0.0,-1.3853976,-0.06382734,778.46155,751.06226,666.4469,790.54944,750.2564,-0.03448486328125,0.0953369140625,1.01202392578125,2.1533203125,-4.598236083984375,-0.755157470703125,1,1.0,4.0,2.0,1.0,65.00
2020-03-09 16:13:49.930,0.3495858,0.0,-1.2951279,0.23526812,0.07304191,0.0,-2.138334,0.4195637,0.56833375,0.0,-1.137125,0.39790708,0.40808347,0.0,-1.245972,0.19418861,0.25837556,0.0,-1.3853976,0.2517094,777.6557,545.16486,541.9414,868.71796,665.2381,-0.0164794921875,0.097900390625,1.01068115234375,2.3028564453125,-5.869293212890625,-0.777587890625,1,1.0,4.0,2.0,1.0,65.00
2020-03-09 16:13:51.955,0.43195385,0.0,-1.2951279,1.0581914,0.1843868,0.0,-2.138334,0.28949106,0.69454587,0.0,-1.137125,0.4768564,0.5242422,0.0,-1.245972,0.5991623,0.32042873,0.0,-1.3853976,0.3052142,743.00366,268.35165,299.3773,774.83514,780.87915,-0.0111083984375,0.10296630859375,1.00555419921875,2.452392578125,-5.420684814453125,-1.069183349609375,1,1.0,4.0,4.0,1.0,65.00
2020-03-09 16:13:53.999,0.6573866,0.0,-1.2951279,0.93162125,0.43818682,0.0,-2.138334,0.3884861,0.7380467,0.0,-1.137125,0.65335935,0.48917025,0.0,-1.245972,0.5958043,0.30459976,0.0,-1.3853976,0.26123434,841.7216,863.47986,820.3663,792.96704,921.9048,-0.02001953125,0.09375,1.0093994140625,2.205657958984375,-5.345916748046875,-0.46356201171875,1,1.0,4.0,2.0,1.0,65.00
2020-03-09 16:13:54.306,,,,,,,,,,,,,,,,,,,,,,,,,,,,,,,,,,,,,,/muse/elements/jaw_clench
2020-03-09 16:13:54.376,,,,,,,,,,,,,,,,,,,,,,,,,,,,,,,,,,,,,,/muse/elements/jaw_clench
2020-03-09 16:13:56.035,0.55661917,0.0,-1.2951279,0.60331964,0.21573031,0.0,-2.138334,0.3996212,0.78293306,0.0,-1.137125,0.5246642,0.41287598,0.0,-1.245972,0.3197804,0.28005463,0.0,-1.3853976,0.4513273,807.8755,918.2784,808.68134,770.40295,686.1905,-0.02569580078125,0.0902099609375,1.0125732421875,2.444915771484375,-5.1739501953125,-0.814971923828125,1,1.0,4.0,2.0,1.0,65.00
2020-03-09 16:13:56.752,,,,,,,,,,,,,,,,,,,,,,,,,,,,,,,,,,,,,,/muse/elements/jaw_clench
2020-03-09 16:13:57.621,,,,,,,,,,,,,,,,,,,,,,,,,,,,,,,,,,,,,,/muse/elements/jaw_clench
2020-03-09 16:13:58.068,0.44643253,0.0,-1.2951279,0.56077117,0.29156488,0.0,-2.138334,0.5402339,0.61824703,0.0,-1.137125,0.74642473,0.35016236,0.0,-1.245972,0.31139305,0.21046649,0.0,-1.3853976,0.18357348,848.1685,405.348,487.54578,815.5311,1059.7069,-0.0264892578125,0.0902099609375,1.0057373046875,1.846771240234375,-5.600128173828125,-0.874786376953125,1,1.0,4.0,2.0,1.0,65.00
2020-03-09 16:13:58.935,,,,,,,,,,,,,,,,,,,,,,,,,,,,,,,,,,,,,,/muse/elements/jaw_clench
2020-03-09 16:14:00.084,0.6350936,0.0,-1.2951279,0.5388352,0.5472677,0.0,-2.138334,0.45414418,0.48355326,0.0,-1.137125,0.56794775,0.23268344,0.0,-1.245972,0.21440592,-0.1460005,0.0,-1.3853976,-0.08695828,776.8498,550.40295,452.89377,768.7912,720.84247,-0.02508544921875,0.09051513671875,1.0096435546875,2.332763671875,-5.09918212890625,-1.188812255859375,1,1.0,4.0,2.0,1.0,65.00
2020-03-09 16:14:00.543,,,,,,,,,,,,,,,,,,,,,,,,,,,,,,,,,,,,,,/muse/elements/jaw_clench
2020-03-09 16:14:00.673,,,,,,,,,,,,,,,,,,,,,,,,,,,,,,,,,,,,,,/muse/elements/jaw_clench
2020-03-09 16:14:01.059,,,,,,,,,,,,,,,,,,,,,,,,,,,,,,,,,,,,,,/muse/elements/blink
2020-03-09 16:14:01.652,,,,,,,,,,,,,,,,,,,,,,,,,,,,,,,,,,,,,,/muse/elements/jaw_clench
2020-03-09 16:14:02.095,0.3160938,0.0,-1.2951279,0.34743887,0.43677357,0.0,-2.138334,0.58471864,0.30409315,0.0,-1.137125,0.7643666,0.2510425,0.0,-1.245972,0.35488877,0.06683449,0.0,-1.3853976,-0.089553915,827.619,812.3077,740.58606,799.011,752.27106,-0.01953125,0.09332275390625,1.0145263671875,2.100982666015625,-5.27862548828125,-0.994415283203125,1,1.0,4.0,2.0,1.0,55.00
2020-03-09 16:14:02.613,,,,,,,,,,,,,,,,,,,,,,,,,,,,,,,,,,,,,,/muse/elements/jaw_clench
2020-03-09 16:14:03.601,,,,,,,,,,,,,,,,,,,,,,,,,,,,,,,,,,,,,,/muse/elements/jaw_clench
2020-03-09 16:14:03.902,,,,,,,,,,,,,,,,,,,,,,,,,,,,,,,,,,,,,,/muse/elements/jaw_clench
2020-03-09 16:14:04.099,0.63934606,0.0,-1.2951279,0.8165851,0.30502513,0.0,-2.138334,0.45454293,0.5289403,0.0,-1.137125,0.5033582,0.32813567,0.0,-1.245972,0.31919393,0.008362275,0.0,-1.3853976,-0.056884322,755.89746,529.45056,490.76923,762.74725,610.0366,-0.0205078125,0.08428955078125,1.00732421875,2.1234130859375,-5.256195068359375,-0.770111083984375,1,1.0,4.0,4.0,1.0,55.00
2020-03-09 16:14:04.900,,,,,,,,,,,,,,,,,,,,,,,,,,,,,,,,,,,,,,/muse/elements/jaw_clench
2020-03-09 16:14:05.291,,,,,,,,,,,,,,,,,,,,,,,,,,,,,,,,,,,,,,/muse/elements/jaw_clench
2020-03-09 16:14:06.117,0.951667,0.0,-1.2951279,0.75620705,0.68627423,0.0,-2.138334,0.5570136,0.6728707,0.0,-1.137125,0.56184536,0.30401278,0.0,-1.245972,0.23750387,0.09804285,0.0,-1.3853976,-0.09457893,859.85345,1320.8059,1181.7949,842.1245,851.79486,-0.02337646484375,0.08477783203125,1.00579833984375,2.1832275390625,-4.987030029296875,-0.897216796875,1,1.0,4.0,2.0,1.0,55.00
2020-03-09 16:14:06.754,,,,,,,,,,,,,,,,,,,,,,,,,,,,,,,,,,,,,,/muse/elements/jaw_clench
2020-03-09 16:14:07.034,,,,,,,,,,,,,,,,,,,,,,,,,,,,,,,,,,,,,,/muse/elements/jaw_clench
2020-03-09 16:14:08.150,1.0129645,0.0,-1.2951279,0.9932092,0.58549523,0.0,-2.138334,0.46536177,0.5814717,0.0,-1.137125,0.6126731,0.270985,0.0,-1.245972,0.29310134,-0.14020044,0.0,-1.3853976,-0.15542367,851.79486,1053.663,985.56775,838.9011,892.0879,-0.020263671875,0.0855712890625,1.00732421875,2.370147705078125,-4.90478515625,-0.97198486328125,1,1.0,4.0,2.0,1.0,55.00
2020-03-09 16:14:08.221,,,,,,,,,,,,,,,,,,,,,,,,,,,,,,,,,,,,,,/muse/elements/jaw_clench
2020-03-09 16:14:09.646,,,,,,,,,,,,,,,,,,,,,,,,,,,,,,,,,,,,,,/muse/elements/jaw_clench
2020-03-09 16:14:10.174,1.4637752,0.0,-1.2951279,1.0321074,1.1433636,0.0,-2.138334,1.1266296,0.8981939,0.0,-1.137125,0.5117906,0.4007504,0.0,-1.245972,0.37177154,0.06451603,0.0,-1.3853976,0.35674626,838.9011,954.5421,880.0,825.6044,774.0293,-0.02081298828125,0.0894775390625,1.01116943359375,2.489776611328125,-4.867401123046875,-0.91217041015625,1,1.0,4.0,2.0,1.0,55.00
2020-03-09 16:14:10.422,,,,,,,,,,,,,,,,,,,,,,,,,,,,,,,,,,,,,,/muse/elements/jaw_clench
2020-03-09 16:14:10.972,,,,,,,,,,,,,,,,,,,,,,,,,,,,,,,,,,,,,,/muse/elements/jaw_clench
2020-03-09 16:14:11.283,,,,,,,,,,,,,,,,,,,,,,,,,,,,,,,,,,,,,,/muse/elements/jaw_clench
2020-03-09 16:14:11.995,,,,,,,,,,,,,,,,,,,,,,,,,,,,,,,,,,,,,,/muse/elements/jaw_clench
2020-03-09 16:14:12.206,0.24189197,0.0,-1.2951279,0.34399316,0.23253997,0.0,-2.138334,0.29185173,0.5724368,0.0,-1.137125,0.65203553,0.3216183,0.0,-1.245972,0.43039867,-0.16407703,0.0,-1.3853976,-0.10176178,792.1612,738.5714,667.6557,796.1905,605.2015,-0.02099609375,0.08758544921875,1.0089111328125,2.6318359375,-4.66552734375,-1.054229736328125,1,1.0,4.0,2.0,1.0,55.00
2020-03-09 16:14:13.075,,,,,,,,,,,,,,,,,,,,,,,,,,,,,,,,,,,,,,/muse/elements/jaw_clench
2020-03-09 16:14:14.228,0.13141108,0.0,-1.2951279,-0.037927665,0.2759805,0.0,-2.138334,0.36861882,0.48223877,0.0,-1.137125,0.65065974,0.25627637,0.0,-1.245972,0.111156166,0.020084474,0.0,-1.3853976,-0.2553162,757.9121,618.49817,614.0659,775.64105,797.3993,-0.01715087890625,0.08563232421875,1.00872802734375,2.0635986328125,-4.942169189453125,-1.12152099609375,1,1.0,4.0,4.0,1.0,65.00
2020-03-09 16:14:14.365,,,,,,,,,,,,,,,,,,,,,,,,,,,,,,,,,,,,,,/muse/elements/jaw_clench
2020-03-09 16:14:14.512,,,,,,,,,,,,,,,,,,,,,,,,,,,,,,,,,,,,,,/muse/elements/jaw_clench
2020-03-09 16:14:15.459,,,,,,,,,,,,,,,,,,,,,,,,,,,,,,,,,,,,,,/muse/elements/jaw_clench
2020-03-09 16:14:15.984,,,,,,,,,,,,,,,,,,,,,,,,,,,,,,,,,,,,,,/muse/elements/jaw_clench
2020-03-09 16:14:16.246,0.6433033,0.0,-1.2951279,0.6948567,0.48029086,0.0,-2.138334,0.4874823,0.7279497,0.0,-1.137125,0.5988169,0.129209,0.0,-1.245972,0.3325715,-0.32689062,0.0,-1.3853976,-0.050040934,823.5897,1191.4652,1097.5824,827.619,846.55676,-0.01861572265625,0.0902099609375,1.010986328125,2.310333251953125,-5.046844482421875,-0.635528564453125,1,1.0,4.0,2.0,1.0,65.00
2020-03-09 16:14:16.849,,,,,,,,,,,,,,,,,,,,,,,,,,,,,,,,,,,,,,/muse/elements/jaw_clench
2020-03-09 16:14:17.348,,,,,,,,,,,,,,,,,,,,,,,,,,,,,,,,,,,,,,/muse/elements/jaw_clench
2020-03-09 16:14:17.835,,,,,,,,,,,,,,,,,,,,,,,,,,,,,,,,,,,,,,/muse/elements/jaw_clench
2020-03-09 16:14:18.269,,,,,,,,,,,,,,,,,,,,,,,,,,,,,,,,,,,,,,/muse/elements/jaw_clench
2020-03-09 16:14:18.270,0.14281143,0.0,-1.2951279,0.27887902,0.22531106,0.0,-2.138334,0.26298365,0.549167,0.0,-1.137125,0.64953643,0.4452596,0.0,-1.245972,0.494711,-0.09248346,0.0,-1.3853976,-0.013738391,810.696,959.7802,936.8132,809.89014,776.04395,-0.0189208984375,0.08856201171875,1.0062255859375,1.95892333984375,-4.94964599609375,-1.2261962890625,1,1.0,4.0,2.0,1.0,65.00
2020-03-09 16:14:18.955,,,,,,,,,,,,,,,,,,,,,,,,,,,,,,,,,,,,,,/muse/elements/jaw_clench
2020-03-09 16:14:19.930,,,,,,,,,,,,,,,,,,,,,,,,,,,,,,,,,,,,,,/muse/elements/jaw_clench
2020-03-09 16:14:20.316,0.46537495,0.0,-1.2951279,0.43394187,0.07881549,0.0,-2.138334,0.20247172,0.20497794,0.0,-1.137125,0.59515375,0.043563727,0.0,-1.245972,0.24943514,-0.2220169,0.0,-1.3853976,-0.27191466,849.3773,1121.3553,1108.8645,835.6777,872.74725,-0.0174560546875,0.0887451171875,1.0107421875,2.175750732421875,-5.271148681640625,-1.039276123046875,1,1.0,4.0,2.0,1.0,65.00
2020-03-09 16:14:21.701,,,,,,,,,,,,,,,,,,,,,,,,,,,,,,,,,,,,,,/muse/elements/jaw_clench
2020-03-09 16:14:21.826,,,,,,,,,,,,,,,,,,,,,,,,,,,,,,,,,,,,,,/muse/elements/jaw_clench
2020-03-09 16:14:22.096,,,,,,,,,,,,,,,,,,,,,,,,,,,,,,,,,,,,,,/muse/elements/jaw_clench
2020-03-09 16:14:22.355,0.4937841,0.0,-1.2951279,0.3256684,0.5838884,0.0,-2.138334,0.4783137,0.41371506,0.0,-1.137125,0.5305093,0.15431805,0.0,-1.245972,0.19194104,-0.016475333,0.0,-1.3853976,0.021817805,840.5128,1274.4689,1162.4542,832.8571,793.7729,-0.01214599609375,0.091064453125,1.00872802734375,1.83929443359375,-5.226287841796875,-1.203765869140625,1,1.0,4.0,2.0,1.0,65.00
2020-03-09 16:14:22.511,,,,,,,,,,,,,,,,,,,,,,,,,,,,,,,,,,,,,,/muse/elements/jaw_clench
2020-03-09 16:14:23.694,,,,,,,,,,,,,,,,,,,,,,,,,,,,,,,,,,,,,,/muse/elements/jaw_clench
2020-03-09 16:14:23.968,,,,,,,,,,,,,,,,,,,,,,,,,,,,,,,,,,,,,,/muse/elements/jaw_clench
2020-03-09 16:14:24.378,0.108226426,0.0,-1.2951279,-0.12897924,0.655009,0.0,-2.138334,0.575531,0.59227276,0.0,-1.137125,0.57034504,0.27204776,0.0,-1.245972,0.2790816,-0.086832196,0.0,-1.3853976,-0.043653138,831.6484,610.0366,637.8388,824.3956,963.4066,-0.01751708984375,0.09210205078125,1.00665283203125,2.370147705078125,-5.211334228515625,-0.785064697265625,1,1.0,4.0,2.0,1.0,60.00
2020-03-09 16:14:24.909,,,,,,,,,,,,,,,,,,,,,,,,,,,,,,,,,,,,,,/muse/elements/jaw_clench
2020-03-09 16:14:26.042,,,,,,,,,,,,,,,,,,,,,,,,,,,,,,,,,,,,,,/muse/elements/jaw_clench
2020-03-09 16:14:26.428,-0.3075591,0.0,-1.2951279,0.060177058,0.105223015,0.0,-2.138334,0.3983227,0.46338615,0.0,-1.137125,0.60964364,0.3328973,0.0,-1.245972,0.24139255,-0.11705067,0.0,-1.3853976,-0.15593117,773.6264,496.8132,427.91208,779.67035,663.22345,-0.01580810546875,0.09375,1.0089111328125,2.31781005859375,-4.97955322265625,-1.128997802734375,1,1.0,4.0,2.0,1.0,60.00
2020-03-09 16:14:26.588,,,,,,,,,,,,,,,,,,,,,,,,,,,,,,,,,,,,,,/muse/elements/jaw_clench
2020-03-09 16:14:26.909,,,,,,,,,,,,,,,,,,,,,,,,,,,,,,,,,,,,,,/muse/elements/jaw_clench
2020-03-09 16:14:28.448,,,,,,,,,,,,,,,,,,,,,,,,,,,,,,,,,,,,,,/muse/elements/jaw_clench
2020-03-09 16:14:28.465,1.298256,0.0,-1.2951279,1.0942658,0.58184654,0.0,-2.138334,0.2785097,0.5088289,0.0,-1.137125,0.4075241,0.26106015,0.0,-1.245972,0.35390863,0.18098786,0.0,-1.3853976,0.09354447,796.99634,643.47986,606.4103,780.87915,659.59705,-0.0135498046875,0.0882568359375,1.00665283203125,2.0635986328125,-5.03936767578125,-1.18133544921875,1,1.0,4.0,2.0,1.0,60.00
2020-03-09 16:14:28.593,,,,,,,,,,,,,,,,,,,,,,,,,,,,,,,,,,,,,,/muse/elements/jaw_clench
2020-03-09 16:14:28.926,,,,,,,,,,,,,,,,,,,,,,,,,,,,,,,,,,,,,,/muse/elements/jaw_clench
2020-03-09 16:14:29.211,,,,,,,,,,,,,,,,,,,,,,,,,,,,,,,,,,,,,,/muse/elements/jaw_clench
2020-03-09 16:14:29.531,,,,,,,,,,,,,,,,,,,,,,,,,,,,,,,,,,,,,,/muse/elements/jaw_clench
2020-03-09 16:14:29.791,,,,,,,,,,,,,,,,,,,,,,,,,,,,,,,,,,,,,,/muse/elements/jaw_clench
2020-03-09 16:14:29.962,,,,,,,,,,,,,,,,,,,,,,,,,,,,,,,,,,,,,,/muse/elements/jaw_clench
2020-03-09 16:14:30.160,,,,,,,,,,,,,,,,,,,,,,,,,,,,,,,,,,,,,,/muse/elements/jaw_clench
2020-03-09 16:14:30.489,0.15627329,0.0,-1.2951279,0.24709097,0.2517675,0.0,-2.138334,0.32405624,0.40164188,0.0,-1.137125,0.2973223,0.29815748,0.0,-1.245972,0.2738377,-0.12139856,0.0,-1.3853976,-0.09455259,749.45056,573.7729,483.51648,757.50916,618.49817,-0.0098876953125,0.09002685546875,1.008544921875,2.429962158203125,-4.41131591796875,-0.904693603515625,1,1.0,4.0,2.0,1.0,60.00
2020-03-09 16:14:32.105,,,,,,,,,,,,,,,,,,,,,,,,,,,,,,,,,,,,,,/muse/elements/jaw_clench
2020-03-09 16:14:32.493,-0.2997675,0.0,-1.2951279,-0.015434209,0.56104815,0.0,-2.138334,0.43272173,0.45162788,0.0,-1.137125,0.29986957,0.1318725,0.0,-1.245972,0.26821387,-0.12516291,0.0,-1.3853976,0.14586355,799.81683,979.12085,900.14655,801.02563,726.8865,-0.0115966796875,0.0897216796875,1.01019287109375,2.026214599609375,-5.330963134765625,-0.859832763671875,1,1.0,4.0,2.0,1.0,60.00
2020-03-09 16:14:32.697,,,,,,,,,,,,,,,,,,,,,,,,,,,,,,,,,,,,,,/muse/elements/jaw_clench
2020-03-09 16:14:32.897,,,,,,,,,,,,,,,,,,,,,,,,,,,,,,,,,,,,,,/muse/elements/jaw_clench
2020-03-09 16:14:33.270,,,,,,,,,,,,,,,,,,,,,,,,,,,,,,,,,,,,,,/muse/elements/jaw_clench
2020-03-09 16:14:33.924,,,,,,,,,,,,,,,,,,,,,,,,,,,,,,,,,,,,,,/muse/elements/jaw_clench
2020-03-09 16:14:34.195,,,,,,,,,,,,,,,,,,,,,,,,,,,,,,,,,,,,,,/muse/elements/jaw_clench
2020-03-09 16:14:34.495,0.5640707,0.0,-1.2951279,0.7607954,0.41535115,0.0,-2.138334,0.27405164,0.45024252,0.0,-1.137125,0.5404683,0.15337275,0.0,-1.245972,0.022834884,-0.08034534,0.0,-1.3853976,0.024190892,847.3626,1046.0073,1004.5055,851.79486,862.674,-0.0042724609375,0.088134765625,1.01416015625,2.28790283203125,-4.852447509765625,-1.099090576171875,1,1.0,4.0,2.0,1.0,65.00
2020-03-09 16:14:34.720,,,,,,,,,,,,,,,,,,,,,,,,,,,,,,,,,,,,,,/muse/elements/jaw_clench
2020-03-09 16:14:35.119,,,,,,,,,,,,,,,,,,,,,,,,,,,,,,,,,,,,,,/muse/elements/jaw_clench
2020-03-09 16:14:35.294,,,,,,,,,,,,,,,,,,,,,,,,,,,,,,,,,,,,,,/muse/elements/jaw_clench
2020-03-09 16:14:35.542,,,,,,,,,,,,,,,,,,,,,,,,,,,,,,,,,,,,,,/muse/elements/jaw_clench
2020-03-09 16:14:35.923,,,,,,,,,,,,,,,,,,,,,,,,,,,,,,,,,,,,,,/muse/elements/jaw_clench
2020-03-09 16:14:36.312,,,,,,,,,,,,,,,,,,,,,,,,,,,,,,,,,,,,,,/muse/elements/jaw_clench
2020-03-09 16:14:36.502,0.5167809,0.0,-1.2951279,0.7842176,0.3845557,0.0,-2.138334,0.49263096,0.5619324,0.0,-1.137125,0.7225784,0.23935615,0.0,-1.245972,0.23950125,-0.11706518,0.0,-1.3853976,-0.037970558,827.2161,743.00366,652.74725,801.02563,735.7509,-0.00616455078125,0.08831787109375,1.009765625,2.235565185546875,-5.405731201171875,-1.203765869140625,1,1.0,2.0,2.0,1.0,65.00
2020-03-09 16:14:36.652,,,,,,,,,,,,,,,,,,,,,,,,,,,,,,,,,,,,,,/muse/elements/jaw_clench
2020-03-09 16:14:36.916,,,,,,,,,,,,,,,,,,,,,,,,,,,,,,,,,,,,,,/muse/elements/jaw_clench
2020-03-09 16:14:37.217,,,,,,,,,,,,,,,,,,,,,,,,,,,,,,,,,,,,,,/muse/elements/jaw_clench
2020-03-09 16:14:37.659,,,,,,,,,,,,,,,,,,,,,,,,,,,,,,,,,,,,,,/muse/elements/jaw_clench
2020-03-09 16:14:37.886,,,,,,,,,,,,,,,,,,,,,,,,,,,,,,,,,,,,,,/muse/elements/jaw_clench
2020-03-09 16:14:38.534,0.4226551,0.0,-1.2951279,0.7023038,0.10207661,0.0,-2.138334,0.2956062,0.45095262,0.0,-1.137125,0.64399827,0.21790808,0.0,-1.245972,0.07119741,0.041204862,0.0,-1.3853976,-0.06978209,821.978,1316.7766,1146.7399,824.3956,803.0403,-0.01141357421875,0.08831787109375,1.0128173828125,2.1533203125,-4.964599609375,-0.605621337890625,1,1.0,4.0,2.0,1.0,65.00
2020-03-09 16:14:38.800,,,,,,,,,,,,,,,,,,,,,,,,,,,,,,,,,,,,,,/muse/elements/jaw_clench
2020-03-09 16:14:39.010,,,,,,,,,,,,,,,,,,,,,,,,,,,,,,,,,,,,,,/muse/elements/jaw_clench
2020-03-09 16:14:39.908,,,,,,,,,,,,,,,,,,,,,,,,,,,,,,,,,,,,,,/muse/elements/jaw_clench
2020-03-09 16:14:40.549,0.09915484,0.0,-1.2951279,0.32366046,0.42888293,0.0,-2.138334,0.5770069,0.039501283,0.0,-1.137125,0.48467684,0.3451084,0.0,-1.245972,0.16198574,-0.022780823,0.0,-1.3853976,0.0950113,779.67035,358.20514,413.00366,786.1172,1070.586,-0.00390625,0.0880126953125,1.009765625,2.2430419921875,-5.09918212890625,-0.919647216796875,1,1.0,4.0,2.0,1.0,65.00
2020-03-09 16:14:41.449,,,,,,,,,,,,,,,,,,,,,,,,,,,,,,,,,,,,,,/muse/elements/jaw_clench
2020-03-09 16:14:41.916,,,,,,,,,,,,,,,,,,,,,,,,,,,,,,,,,,,,,,/muse/elements/jaw_clench
2020-03-09 16:14:41.994,,,,,,,,,,,,,,,,,,,,,,,,,,,,,,,,,,,,,,/muse/elements/blink
2020-03-09 16:14:42.438,,,,,,,,,,,,,,,,,,,,,,,,,,,,,,,,,,,,,,/muse/elements/jaw_clench
2020-03-09 16:14:42.559,0.11947555,0.0,-1.2951279,0.42960927,0.4170132,0.0,-2.138334,0.46965447,-0.16639002,0.0,-1.137125,0.01996398,0.4100888,0.0,-1.245972,0.26039436,-0.024397897,0.0,-1.3853976,0.054229815,838.49817,1110.4762,1031.0989,835.2747,894.90845,-0.00628662109375,0.0931396484375,1.0101318359375,2.27294921875,-4.964599609375,-0.829925537109375,1,2.0,4.0,2.0,2.0,65.00
2020-03-09 16:14:43.269,,,,,,,,,,,,,,,,,,,,,,,,,,,,,,,,,,,,,,/muse/elements/jaw_clench
2020-03-09 16:14:43.660,,,,,,,,,,,,,,,,,,,,,,,,,,,,,,,,,,,,,,/muse/elements/jaw_clench
2020-03-09 16:14:44.593,0.5260127,0.0,-1.2951279,0.72309244,0.4367508,0.0,-2.138334,0.5060953,0.48904747,0.0,-1.137125,0.6041689,0.30375233,0.0,-1.245972,0.3296484,0.23293333,0.0,-1.3853976,0.12734292,803.8461,852.1978,800.2198,793.36993,707.5458,-0.0048828125,0.0889892578125,1.0115966796875,2.40753173828125,-4.762725830078125,-0.874786376953125,1,1.0,4.0,2.0,1.0,65.00
2020-03-09 16:14:46.516,,,,,,,,,,,,,,,,,,,,,,,,,,,,,,,,,,,,,,/muse/elements/jaw_clench
2020-03-09 16:14:46.616,0.947876,0.0,-1.2951279,0.9072675,0.5643537,0.0,-2.138334,0.62682337,0.39932287,0.0,-1.137125,0.47779855,0.22422633,0.0,-1.245972,0.2638231,-0.01245288,0.0,-1.3853976,-0.12175237,839.707,826.4103,821.978,836.4835,898.1319,-0.01092529296875,0.09210205078125,1.0137939453125,1.98883056640625,-5.12908935546875,-0.889739990234375,1,1.0,4.0,2.0,1.0,65.00
2020-03-09 16:14:47.074,,,,,,,,,,,,,,,,,,,,,,,,,,,,,,,,,,,,,,/muse/elements/jaw_clench
2020-03-09 16:14:47.609,,,,,,,,,,,,,,,,,,,,,,,,,,,,,,,,,,,,,,/muse/elements/jaw_clench
2020-03-09 16:14:48.365,,,,,,,,,,,,,,,,,,,,,,,,,,,,,,,,,,,,,,/muse/elements/jaw_clench
2020-03-09 16:14:48.618,0.64480203,0.0,-1.2951279,0.7196388,0.40270212,0.0,-2.138334,0.0449306,0.4950058,0.0,-1.137125,0.49280533,0.15741697,0.0,-1.245972,0.25664592,-0.18667229,0.0,-1.3853976,-0.11182164,783.69965,875.56775,807.0696,800.2198,755.09155,-0.0054931640625,0.0914306640625,1.01043701171875,2.385101318359375,-5.435638427734375,-0.94207763671875,1,1.0,4.0,2.0,1.0,65.00
2020-03-09 16:14:49.162,,,,,,,,,,,,,,,,,,,,,,,,,,,,,,,,,,,,,,/muse/elements/jaw_clench
2020-03-09 16:14:50.160,,,,,,,,,,,,,,,,,,,,,,,,,,,,,,,,,,,,,,/muse/elements/jaw_clench
2020-03-09 16:14:50.476,,,,,,,,,,,,,,,,,,,,,,,,,,,,,,,,,,,,,,/muse/elements/jaw_clench
2020-03-09 16:14:50.630,0.4640454,0.0,-1.2951279,0.50605035,0.47063804,0.0,-2.138334,0.59221953,0.72845376,0.0,-1.137125,0.82982916,0.21291283,0.0,-1.245972,0.33690476,-0.2144831,0.0,-1.3853976,-0.03599719,794.17584,1076.227,1027.0696,802.6374,936.0073,-0.001220703125,0.0888671875,1.010986328125,2.594451904296875,-4.1571044921875,-1.18133544921875,1,1.0,4.0,2.0,1.0,65.00
2020-03-09 16:14:50.773,,,,,,,,,,,,,,,,,,,,,,,,,,,,,,,,,,,,,,/muse/elements/jaw_clench
2020-03-09 16:14:51.946,,,,,,,,,,,,,,,,,,,,,,,,,,,,,,,,,,,,,,/muse/elements/jaw_clench
2020-03-09 16:14:52.596,,,,,,,,,,,,,,,,,,,,,,,,,,,,,,,,,,,,,,/muse/elements/jaw_clench
2020-03-09 16:14:52.637,1.083863,0.0,-1.2951279,0.3865702,0.6729067,0.0,-2.138334,-0.0359517,0.69901866,0.0,-1.137125,0.011579592,0.35926926,0.0,-1.245972,0.039696667,-0.087644644,0.0,-1.3853976,-0.3305044,855.42126,884.43225,843.73627,830.4396,706.337,-0.0076904296875,0.08935546875,1.010986328125,2.205657958984375,-5.316009521484375,-1.099090576171875,1,1.0,4.0,2.0,1.0,65.00
2020-03-09 16:14:53.073,,,,,,,,,,,,,,,,,,,,,,,,,,,,,,,,,,,,,,/muse/elements/jaw_clench
2020-03-09 16:14:53.330,,,,,,,,,,,,,,,,,,,,,,,,,,,,,,,,,,,,,,/muse/elements/jaw_clench
2020-03-09 16:14:53.492,,,,,,,,,,,,,,,,,,,,,,,,,,,,,,,,,,,,,,/muse/elements/jaw_clench
2020-03-09 16:14:53.778,,,,,,,,,,,,,,,,,,,,,,,,,,,,,,,,,,,,,,/muse/elements/blink
2020-03-09 16:14:54.644,,,,,,,,,,,,,,,,,,,,,,,,,,,,,,,,,,,,,,/muse/elements/jaw_clench
2020-03-09 16:14:54.646,1.083863,0.0,-1.2951279,0.8219103,0.6729067,0.0,-2.138334,0.38914692,0.69901866,0.0,-1.137125,0.85786784,0.35926926,0.0,-1.245972,0.30170795,-0.087644644,0.0,-1.3853976,-0.2986758,772.01465,642.674,543.5531,765.9707,585.05493,-0.00762939453125,0.0914306640625,1.01025390625,2.76641845703125,-5.12908935546875,-1.128997802734375,1,1.0,4.0,2.0,1.0,55.00
2020-03-09 16:14:55.279,,,,,,,,,,,,,,,,,,,,,,,,,,,,,,,,,,,,,,/muse/elements/jaw_clench
2020-03-09 16:14:55.737,,,,,,,,,,,,,,,,,,,,,,,,,,,,,,,,,,,,,,/muse/elements/jaw_clench
2020-03-09 16:14:56.063,,,,,,,,,,,,,,,,,,,,,,,,,,,,,,,,,,,,,,/muse/elements/jaw_clench
2020-03-09 16:14:56.632,,,,,,,,,,,,,,,,,,,,,,,,,,,,,,,,,,,,,,/muse/elements/jaw_clench
2020-03-09 16:14:56.680,1.0983093,0.0,-1.2951279,1.0819881,0.36033687,0.0,-2.138334,0.57850397,0.5693814,0.0,-1.137125,0.5105471,0.28124943,0.0,-1.245972,0.39256504,-0.05572256,0.0,-1.3853976,0.0034453475,747.4359,707.9487,649.12085,755.89746,686.99634,-0.00408935546875,0.09466552734375,1.0096435546875,2.25799560546875,-5.45806884765625,-1.12152099609375,1,1.0,4.0,2.0,1.0,55.00
2020-03-09 16:14:56.963,,,,,,,,,,,,,,,,,,,,,,,,,,,,,,,,,,,,,,/muse/elements/jaw_clench
2020-03-09 16:14:57.919,,,,,,,,,,,,,,,,,,,,,,,,,,,,,,,,,,,,,,/muse/elements/jaw_clench
2020-03-09 16:14:58.074,,,,,,,,,,,,,,,,,,,,,,,,,,,,,,,,,,,,,,/muse/elements/jaw_clench
2020-03-09 16:14:58.281,,,,,,,,,,,,,,,,,,,,,,,,,,,,,,,,,,,,,,/muse/elements/jaw_clench
2020-03-09 16:14:58.703,-0.12972255,0.0,-1.2951279,0.20681822,-0.0577872,0.0,-2.138334,0.14347637,-0.043966495,0.0,-1.137125,0.36689422,0.3749611,0.0,-1.245972,0.3350988,-0.08980173,0.0,-1.3853976,-0.20580862,743.4066,531.8681,508.9011,753.47986,716.4103,-0.00286865234375,0.08502197265625,1.00836181640625,2.355194091796875,-5.42816162109375,-0.70281982421875,1,1.0,4.0,2.0,1.0,55.00
2020-03-09 16:14:59.538,,,,,,,,,,,,,,,,,,,,,,,,,,,,,,,,,,,,,,/muse/elements/jaw_clench
2020-03-09 16:15:00.733,,,,,,,,,,,,,,,,,,,,,,,,,,,,,,,,,,,,,,/muse/elements/jaw_clench
2020-03-09 16:15:00.735,0.79109466,0.0,-1.2951279,0.71134967,0.5678936,0.0,-2.138334,0.4068345,0.658006,0.0,-1.137125,0.5943679,0.21867405,0.0,-1.245972,0.24394515,0.022510713,0.0,-1.3853976,-0.10741841,784.5055,1070.586,1037.5458,792.1612,782.8938,-0.00311279296875,0.08819580078125,1.00567626953125,2.27294921875,-5.016937255859375,-1.6448974609375,1,1.0,4.0,2.0,1.0,55.00
2020-03-09 16:15:02.076,,,,,,,,,,,,,,,,,,,,,,,,,,,,,,,,,,,,,,/muse/elements/jaw_clench
2020-03-09 16:15:02.631,,,,,,,,,,,,,,,,,,,,,,,,,,,,,,,,,,,,,,/muse/elements/jaw_clench
2020-03-09 16:15:02.753,0.9941135,0.0,-1.2951279,0.83163404,0.7119747,0.0,-2.138334,0.81015986,0.5034488,0.0,-1.137125,0.47491837,0.0914831,0.0,-1.245972,0.20674269,-0.06582828,0.0,-1.3853976,-0.0900226,846.9597,1146.337,1147.5458,844.94507,923.5165,-0.0042724609375,0.08831787109375,1.00970458984375,2.01873779296875,-4.448699951171875,-0.770111083984375,1,1.0,4.0,4.0,1.0,55.00
2020-03-09 16:15:03.188,,,,,,,,,,,,,,,,,,,,,,,,,,,,,,,,,,,,,,/muse/elements/jaw_clench
2020-03-09 16:15:03.849,,,,,,,,,,,,,,,,,,,,,,,,,,,,,,,,,,,,,,/muse/elements/jaw_clench
2020-03-09 16:15:04.129,,,,,,,,,,,,,,,,,,,,,,,,,,,,,,,,,,,,,,/muse/elements/blink
2020-03-09 16:15:04.551,,,,,,,,,,,,,,,,,,,,,,,,,,,,,,,,,,,,,,/muse/elements/jaw_clench
2020-03-09 16:15:04.686,,,,,,,,,,,,,,,,,,,,,,,,,,,,,,,,,,,,,,/muse/elements/jaw_clench
2020-03-09 16:15:04.763,0.25393438,0.0,-1.2951279,1.2917389,0.24899188,0.0,-2.138334,1.1606497,0.25293133,0.0,-1.137125,0.8642792,0.06656359,0.0,-1.245972,0.3484745,-0.28342667,0.0,-1.3853976,-0.10477596,759.12085,584.2491,553.22345,772.4176,585.4579,0.00238037109375,0.09136962890625,1.01080322265625,2.1234130859375,-4.792633056640625,-0.770111083984375,1,1.0,4.0,2.0,1.0,65.00
2020-03-09 16:15:05.386,,,,,,,,,,,,,,,,,,,,,,,,,,,,,,,,,,,,,,/muse/elements/jaw_clench
2020-03-09 16:15:05.730,,,,,,,,,,,,,,,,,,,,,,,,,,,,,,,,,,,,,,/muse/elements/jaw_clench
2020-03-09 16:15:06.774,0.18628187,0.0,-1.2951279,0.289643,0.15206769,0.0,-2.138334,0.19494633,0.3698782,0.0,-1.137125,0.56990653,0.33946157,0.0,-1.245972,0.35254186,-0.028217701,0.0,-1.3853976,-0.044043142,769.59705,560.4762,592.3077,769.59705,610.0366,-0.00103759765625,0.08935546875,1.009765625,2.519683837890625,-5.4132080078125,-1.18133544921875,1,1.0,4.0,2.0,1.0,65.00
2020-03-09 16:15:07.203,,,,,,,,,,,,,,,,,,,,,,,,,,,,,,,,,,,,,,/muse/elements/jaw_clench
2020-03-09 16:15:07.407,,,,,,,,,,,,,,,,,,,,,,,,,,,,,,,,,,,,,,/muse/elements/jaw_clench
2020-03-09 16:15:07.714,,,,,,,,,,,,,,,,,,,,,,,,,,,,,,,,,,,,,,/muse/elements/jaw_clench
2020-03-09 16:15:08.096,,,,,,,,,,,,,,,,,,,,,,,,,,,,,,,,,,,,,,/muse/elements/jaw_clench
2020-03-09 16:15:08.777,0.38962016,0.0,-1.2951279,0.27717912,0.6344757,0.0,-2.138334,0.29021865,0.7959525,0.0,-1.137125,0.68782675,0.08288405,0.0,-1.245972,0.20762712,-0.21486108,0.0,-1.3853976,-0.19764934,756.7033,475.4579,534.68866,778.0586,730.5128,-0.00250244140625,0.09124755859375,1.00836181640625,1.966400146484375,-4.50103759765625,-1.12152099609375,1,1.0,4.0,2.0,1.0,65.00
2020-03-09 16:15:09.798,,,,,,,,,,,,,,,,,,,,,,,,,,,,,,,,,,,,,,/muse/elements/jaw_clench
2020-03-09 16:15:09.972,,,,,,,,,,,,,,,,,,,,,,,,,,,,,,,,,,,,,,/muse/elements/jaw_clench
2020-03-09 16:15:10.652,,,,,,,,,,,,,,,,,,,,,,,,,,,,,,,,,,,,,,/muse/elements/jaw_clench
2020-03-09 16:15:10.812,0.6392648,0.0,-1.2951279,0.64210075,0.7113409,0.0,-2.138334,0.4821351,0.85345536,0.0,-1.137125,0.40528443,0.24021158,0.0,-1.245972,0.22455437,-0.15730344,0.0,-1.3853976,-0.16022049,830.84247,1318.3883,1220.8792,832.4542,777.6557,0.0042724609375,0.0843505859375,1.00433349609375,2.145843505859375,-5.1739501953125,-0.22430419921875,1,1.0,4.0,2.0,1.0,65.00
2020-03-09 16:15:11.180,,,,,,,,,,,,,,,,,,,,,,,,,,,,,,,,,,,,,,/muse/elements/jaw_clench
2020-03-09 16:15:11.387,,,,,,,,,,,,,,,,,,,,,,,,,,,,,,,,,,,,,,/muse/elements/jaw_clench
2020-03-09 16:15:11.584,,,,,,,,,,,,,,,,,,,,,,,,,,,,,,,,,,,,,,/muse/elements/jaw_clench
2020-03-09 16:15:12.219,,,,,,,,,,,,,,,,,,,,,,,,,,,,,,,,,,,,,,/muse/elements/jaw_clench
2020-03-09 16:15:12.409,,,,,,,,,,,,,,,,,,,,,,,,,,,,,,,,,,,,,,/muse/elements/jaw_clench
2020-03-09 16:15:12.853,0.6593021,0.0,-1.2951279,0.7058913,0.41865197,0.0,-2.138334,0.6330452,0.59106755,0.0,-1.137125,0.61148924,0.19969404,0.0,-1.245972,0.23285289,-0.22904047,0.0,-1.3853976,-0.3378466,844.1392,1047.2161,975.09155,822.7839,815.9341,0.00244140625,0.08636474609375,1.01171875,2.28790283203125,-5.8917236328125,-1.009368896484375,1,1.0,4.0,2.0,1.0,65.00
2020-03-09 16:15:13.013,,,,,,,,,,,,,,,,,,,,,,,,,,,,,,,,,,,,,,/muse/elements/blink
2020-03-09 16:15:13.013,,,,,,,,,,,,,,,,,,,,,,,,,,,,,,,,,,,,,,/muse/elements/jaw_clench
2020-03-09 16:15:13.318,,,,,,,,,,,,,,,,,,,,,,,,,,,,,,,,,,,,,,/muse/elements/jaw_clench
2020-03-09 16:15:14.222,,,,,,,,,,,,,,,,,,,,,,,,,,,,,,,,,,,,,,/muse/elements/jaw_clench
2020-03-09 16:15:14.906,0.8774711,0.0,-1.2951279,1.0117143,0.58744514,0.0,-2.138334,0.5182818,0.5228932,0.0,-1.137125,0.482222,0.3350013,0.0,-1.245972,0.36021248,-0.2360484,0.0,-1.3853976,-0.059722405,771.6117,798.20514,749.85345,777.25275,708.7546,0.00726318359375,0.08953857421875,1.0128173828125,2.43743896484375,-5.420684814453125,-0.79254150390625,1,1.0,4.0,2.0,1.0,65.00
2020-03-09 16:15:15.880,,,,,,,,,,,,,,,,,,,,,,,,,,,,,,,,,,,,,,/muse/elements/jaw_clench
2020-03-09 16:15:16.394,,,,,,,,,,,,,,,,,,,,,,,,,,,,,,,,,,,,,,/muse/elements/jaw_clench
2020-03-09 16:15:16.913,0.2955057,0.0,-1.2951279,0.30261743,0.2748489,0.0,-2.138334,0.42911637,0.5466539,0.0,-1.137125,0.5142611,0.09691827,0.0,-1.245972,0.16083501,-0.19479558,0.0,-1.3853976,-0.216853,816.7399,696.26373,687.8022,812.71063,696.26373,0.00482177734375,0.0853271484375,1.00286865234375,2.250518798828125,-5.360870361328125,-0.777587890625,1,1.0,4.0,2.0,1.0,65.00
2020-03-09 16:15:17.904,,,,,,,,,,,,,,,,,,,,,,,,,,,,,,,,,,,,,,/muse/elements/jaw_clench
2020-03-09 16:15:18.036,,,,,,,,,,,,,,,,,,,,,,,,,,,,,,,,,,,,,,/muse/elements/jaw_clench
2020-03-09 16:15:18.933,0.43464017,0.0,-1.2951279,0.38228014,-0.13385399,0.0,-2.138334,-0.11897767,0.29758707,0.0,-1.137125,0.23798445,0.36795485,0.0,-1.245972,0.43870667,-0.15675764,0.0,-1.3853976,-0.1945784,750.2564,528.24176,510.51282,757.50916,632.1978,0.00732421875,0.0875244140625,1.01312255859375,2.27294921875,-4.964599609375,-0.85235595703125,1,1.0,4.0,2.0,1.0,65.00
2020-03-09 16:15:19.410,,,,,,,,,,,,,,,,,,,,,,,,,,,,,,,,,,,,,,/muse/elements/jaw_clench
2020-03-09 16:15:20.952,0.95077187,0.0,-1.2951279,0.56489205,0.39121735,0.0,-2.138334,0.48981112,0.61897767,0.0,-1.137125,0.5250664,0.25206876,0.0,-1.245972,0.23309048,-0.23459451,0.0,-1.3853976,-0.2848849,773.6264,716.0073,673.2967,784.5055,780.4762,0.00634765625,0.09259033203125,1.01220703125,2.355194091796875,-5.301055908203125,-0.73272705078125,1,1.0,4.0,2.0,1.0,65.00
2020-03-09 16:15:21.525,,,,,,,,,,,,,,,,,,,,,,,,,,,,,,,,,,,,,,/muse/elements/jaw_clench
2020-03-09 16:15:22.665,,,,,,,,,,,,,,,,,,,,,,,,,,,,,,,,,,,,,,/muse/elements/jaw_clench
2020-03-09 16:15:22.897,,,,,,,,,,,,,,,,,,,,,,,,,,,,,,,,,,,,,,/muse/elements/jaw_clench
2020-03-09 16:15:22.961,0.62286574,0.0,-1.2951279,0.74900454,0.42484492,0.0,-2.138334,0.5522021,0.60379785,0.0,-1.137125,0.54903734,0.23923928,0.0,-1.245972,0.16950455,-0.08780868,0.0,-1.3853976,0.023812873,806.6667,963.00366,963.00366,813.91943,823.9927,0.00469970703125,0.08935546875,1.0108642578125,2.100982666015625,-5.18890380859375,-1.024322509765625,1,1.0,4.0,2.0,1.0,65.00
2020-03-09 16:15:23.480,,,,,,,,,,,,,,,,,,,,,,,,,,,,,,,,,,,,,,/muse/elements/jaw_clench
2020-03-09 16:15:24.504,,,,,,,,,,,,,,,,,,,,,,,,,,,,,,,,,,,,,,/muse/elements/jaw_clench
2020-03-09 16:15:24.770,,,,,,,,,,,,,,,,,,,,,,,,,,,,,,,,,,,,,,/muse/elements/jaw_clench
2020-03-09 16:15:24.977,0.57661784,0.0,-1.2951279,0.6270099,0.5576147,0.0,-2.138334,0.6500396,0.56637317,0.0,-1.137125,0.87659705,0.32741848,0.0,-1.245972,0.45661104,0.046116795,0.0,-1.3853976,-0.23155572,857.8388,1130.2197,1158.022,854.21246,932.7839,0.00897216796875,0.08599853515625,1.00543212890625,2.28790283203125,-5.121612548828125,-0.6280517578125,1,1.0,4.0,4.0,1.0,65.00
2020-03-09 16:15:25.064,,,,,,,,,,,,,,,,,,,,,,,,,,,,,,,,,,,,,,/muse/elements/jaw_clench
2020-03-09 16:15:25.494,,,,,,,,,,,,,,,,,,,,,,,,,,,,,,,,,,,,,,/muse/elements/jaw_clench
2020-03-09 16:15:25.785,,,,,,,,,,,,,,,,,,,,,,,,,,,,,,,,,,,,,,/muse/elements/jaw_clench
2020-03-09 16:15:27.013,0.27097228,0.0,-1.2951279,0.10561781,0.1305822,0.0,-2.138334,0.07175685,0.37848422,0.0,-1.137125,0.5317821,0.17547922,0.0,-1.245972,0.22017854,-0.2488745,0.0,-1.3853976,-0.18872021,819.9634,676.52014,689.81683,814.7253,714.7985,0.00701904296875,0.08978271484375,1.0069580078125,2.071075439453125,-5.884246826171875,-0.97198486328125,1,1.0,4.0,2.0,1.0,65.00
2020-03-09 16:15:27.036,,,,,,,,,,,,,,,,,,,,,,,,,,,,,,,,,,,,,,/muse/elements/jaw_clench
2020-03-09 16:15:27.522,,,,,,,,,,,,,,,,,,,,,,,,,,,,,,,,,,,,,,/muse/elements/jaw_clench
2020-03-09 16:15:28.192,,,,,,,,,,,,,,,,,,,,,,,,,,,,,,,,,,,,,,/muse/elements/jaw_clench
2020-03-09 16:15:28.909,,,,,,,,,,,,,,,,,,,,,,,,,,,,,,,,,,,,,,/muse/elements/jaw_clench
2020-03-09 16:15:29.062,0.3283702,0.0,-1.2951279,0.3177707,0.01773181,0.0,-2.138334,0.3877996,0.5702813,0.0,-1.137125,0.59017456,0.25199488,0.0,-1.245972,0.2949506,-0.11038428,0.0,-1.3853976,-0.19986114,763.95605,541.13556,522.6007,768.7912,622.1245,0.00543212890625,0.08489990234375,1.011474609375,1.9140625,-4.91973876953125,-1.428070068359375,1,1.0,4.0,2.0,1.0,65.00
2020-03-09 16:15:29.067,,,,,,,,,,,,,,,,,,,,,,,,,,,,,,,,,,,,,,/muse/elements/jaw_clench
2020-03-09 16:15:29.469,,,,,,,,,,,,,,,,,,,,,,,,,,,,,,,,,,,,,,/muse/elements/jaw_clench
2020-03-09 16:15:30.251,,,,,,,,,,,,,,,,,,,,,,,,,,,,,,,,,,,,,,/muse/elements/jaw_clench
2020-03-09 16:15:30.863,,,,,,,,,,,,,,,,,,,,,,,,,,,,,,,,,,,,,,/muse/elements/jaw_clench
2020-03-09 16:15:31.068,0.16528101,0.0,-1.2951279,0.024935342,0.33092013,0.0,-2.138334,0.44919634,0.6200573,0.0,-1.137125,0.8250576,0.3602564,0.0,-1.245972,0.27872777,-0.053725827,0.0,-1.3853976,-0.026947865,776.04395,844.94507,788.1319,793.7729,683.36993,0.00689697265625,0.090087890625,1.01123046875,1.727142333984375,-4.80010986328125,-0.665435791015625,1,1.0,4.0,2.0,1.0,65.00
2020-03-09 16:15:31.714,,,,,,,,,,,,,,,,,,,,,,,,,,,,,,,,,,,,,,/muse/elements/jaw_clench
2020-03-09 16:15:31.884,,,,,,,,,,,,,,,,,,,,,,,,,,,,,,,,,,,,,,/muse/elements/jaw_clench
2020-03-09 16:15:32.369,,,,,,,,,,,,,,,,,,,,,,,,,,,,,,,,,,,,,,/muse/elements/jaw_clench
2020-03-09 16:15:32.922,,,,,,,,,,,,,,,,,,,,,,,,,,,,,,,,,,,,,,/muse/elements/jaw_clench
2020-03-09 16:15:33.109,0.4051585,0.0,-1.2951279,0.32482696,0.52287424,0.0,-2.138334,0.5858575,0.61711735,0.0,-1.137125,0.77105504,0.38057917,0.0,-1.245972,0.4324011,-0.10251967,0.0,-1.3853976,-0.044989713,765.9707,491.97803,494.79852,756.7033,655.16486,0.00970458984375,0.0902099609375,1.00897216796875,2.011260986328125,-5.166473388671875,-1.054229736328125,1,1.0,4.0,2.0,1.0,65.00
2020-03-09 16:15:33.223,,,,,,,,,,,,,,,,,,,,,,,,,,,,,,,,,,,,,,/muse/elements/jaw_clench
2020-03-09 16:15:33.902,,,,,,,,,,,,,,,,,,,,,,,,,,,,,,,,,,,,,,/muse/elements/jaw_clench
2020-03-09 16:15:34.119,,,,,,,,,,,,,,,,,,,,,,,,,,,,,,,,,,,,,,/muse/elements/jaw_clench
2020-03-09 16:15:35.123,0.7358321,0.0,-1.2951279,0.6033776,0.68355757,0.0,-2.138334,0.47320938,0.61822355,0.0,-1.137125,0.65187067,0.32557827,0.0,-1.245972,0.20829618,-0.095659174,0.0,-1.3853976,-0.16430807,796.5934,946.08057,921.50183,796.99634,803.0403,0.014892578125,0.08935546875,1.0078125,2.340240478515625,-5.061798095703125,-0.8673095703125,1,1.0,4.0,2.0,1.0,65.00
2020-03-09 16:15:35.423,,,,,,,,,,,,,,,,,,,,,,,,,,,,,,,,,,,,,,/muse/elements/jaw_clench
2020-03-09 16:15:35.713,,,,,,,,,,,,,,,,,,,,,,,,,,,,,,,,,,,,,,/muse/elements/jaw_clench
2020-03-09 16:15:36.315,,,,,,,,,,,,,,,,,,,,,,,,,,,,,,,,,,,,,,/muse/elements/jaw_clench
2020-03-09 16:15:36.963,,,,,,,,,,,,,,,,,,,,,,,,,,,,,,,,,,,,,,/muse/elements/jaw_clench
2020-03-09 16:15:37.134,0.6403182,0.0,-1.2951279,0.58279556,0.46933496,0.0,-2.138334,0.6232081,0.5039142,0.0,-1.137125,0.64978355,0.31466213,0.0,-1.245972,0.2856698,-0.17052843,0.0,-1.3853976,-0.17431596,767.1795,994.43225,923.5165,778.86444,770.0,0.0128173828125,0.08636474609375,1.00689697265625,2.31781005859375,-5.06927490234375,-0.755157470703125,1,1.0,4.0,2.0,1.0,60.00
2020-03-09 16:15:37.259,,,,,,,,,,,,,,,,,,,,,,,,,,,,,,,,,,,,,,/muse/elements/jaw_clench
2020-03-09 16:15:37.532,,,,,,,,,,,,,,,,,,,,,,,,,,,,,,,,,,,,,,/muse/elements/jaw_clench
2020-03-09 16:15:38.236,,,,,,,,,,,,,,,,,,,,,,,,,,,,,,,,,,,,,,/muse/elements/jaw_clench
2020-03-09 16:15:38.535,,,,,,,,,,,,,,,,,,,,,,,,,,,,,,,,,,,,,,/muse/elements/jaw_clench
2020-03-09 16:15:39.120,,,,,,,,,,,,,,,,,,,,,,,,,,,,,,,,,,,,,,/muse/elements/jaw_clench
2020-03-09 16:15:39.148,0.12690887,0.0,-1.2951279,-0.19474894,0.2368216,0.0,-2.138334,0.32615903,0.4968404,0.0,-1.137125,0.43189335,0.2935244,0.0,-1.245972,0.20091198,-0.20794718,0.0,-1.3853976,-0.06234056,807.8755,704.3223,663.6264,788.5348,753.8828,0.0162353515625,0.09088134765625,1.0076904296875,2.220611572265625,-5.330963134765625,-1.443023681640625,1,1.0,4.0,2.0,1.0,60.00
2020-03-09 16:15:40.734,,,,,,,,,,,,,,,,,,,,,,,,,,,,,,,,,,,,,,/muse/elements/jaw_clench
2020-03-09 16:15:40.933,,,,,,,,,,,,,,,,,,,,,,,,,,,,,,,,,,,,,,/muse/elements/jaw_clench
2020-03-09 16:15:41.171,0.04945036,0.0,-1.2951279,0.057425547,0.32293144,0.0,-2.138334,0.48720154,0.39836422,0.0,-1.137125,0.6239232,0.15911302,0.0,-1.245972,0.23745316,-0.38128668,0.0,-1.3853976,-0.27062884,745.0183,549.59705,517.76556,746.2271,682.5641,0.00921630859375,0.08636474609375,1.00775146484375,1.772003173828125,-4.987030029296875,-1.3458251953125,1,1.0,4.0,2.0,1.0,60.00
2020-03-09 16:15:41.659,,,,,,,,,,,,,,,,,,,,,,,,,,,,,,,,,,,,,,/muse/elements/jaw_clench
2020-03-09 16:15:42.245,,,,,,,,,,,,,,,,,,,,,,,,,,,,,,,,,,,,,,/muse/elements/jaw_clench
2020-03-09 16:15:42.980,,,,,,,,,,,,,,,,,,,,,,,,,,,,,,,,,,,,,,/muse/elements/jaw_clench
2020-03-09 16:15:43.173,0.4886196,0.0,-1.2951279,0.48100466,0.2298946,0.0,-2.138334,0.35671344,0.6803351,0.0,-1.137125,0.5087341,0.18931122,0.0,-1.245972,0.23458454,-0.21468227,0.0,-1.3853976,0.0012430868,782.0879,762.74725,781.685,795.38464,721.6484,0.0150146484375,0.08843994140625,1.01190185546875,2.370147705078125,-5.18890380859375,-0.94207763671875,1,1.0,4.0,2.0,1.0,60.00
2020-03-09 16:15:44.569,,,,,,,,,,,,,,,,,,,,,,,,,,,,,,,,,,,,,,/muse/elements/jaw_clench
2020-03-09 16:15:44.806,,,,,,,,,,,,,,,,,,,,,,,,,,,,,,,,,,,,,,/muse/elements/jaw_clench
2020-03-09 16:15:45.017,,,,,,,,,,,,,,,,,,,,,,,,,,,,,,,,,,,,,,/muse/elements/jaw_clench
2020-03-09 16:15:45.220,0.68118477,0.0,-1.2951279,0.654094,0.6205253,0.0,-2.138334,0.5927344,0.54301095,0.0,-1.137125,0.40788966,0.3184096,0.0,-1.245972,0.1602611,-0.080078915,0.0,-1.3853976,-0.32738727,838.9011,1137.4725,1165.6776,826.8132,878.7912,0.01446533203125,0.08551025390625,1.013916015625,2.803802490234375,-4.284210205078125,-0.964508056640625,1,1.0,4.0,2.0,1.0,60.00
2020-03-09 16:15:45.318,,,,,,,,,,,,,,,,,,,,,,,,,,,,,,,,,,,,,,/muse/elements/jaw_clench
2020-03-09 16:15:46.134,,,,,,,,,,,,,,,,,,,,,,,,,,,,,,,,,,,,,,/muse/elements/jaw_clench
2020-03-09 16:15:46.288,,,,,,,,,,,,,,,,,,,,,,,,,,,,,,,,,,,,,,/muse/elements/jaw_clench
2020-03-09 16:15:46.710,,,,,,,,,,,,,,,,,,,,,,,,,,,,,,,,,,,,,,/muse/elements/jaw_clench
2020-03-09 16:15:47.229,-0.050350737,0.0,-1.2951279,0.032403752,0.16578338,0.0,-2.138334,0.22788635,0.46765435,0.0,-1.137125,0.6059309,0.13751781,0.0,-1.245972,0.32962543,-0.07550941,0.0,-1.3853976,0.032874394,820.7692,1308.7179,1224.5055,819.9634,777.25275,0.015869140625,0.090576171875,1.01171875,2.400054931640625,-5.4132080078125,-0.85235595703125,1,1.0,4.0,2.0,1.0,65.00
2020-03-09 16:15:48.169,,,,,,,,,,,,,,,,,,,,,,,,,,,,,,,,,,,,,,/muse/elements/jaw_clench
2020-03-09 16:15:48.627,,,,,,,,,,,,,,,,,,,,,,,,,,,,,,,,,,,,,,/muse/elements/jaw_clench
2020-03-09 16:15:49.243,-0.07890325,0.0,-1.2951279,0.15017103,0.34802318,0.0,-2.138334,0.43818837,0.3666808,0.0,-1.137125,0.3977879,0.06287836,0.0,-1.245972,0.09441874,-0.26831526,0.0,-1.3853976,-0.14370419,846.9597,1030.2931,1024.652,828.4249,822.7839,0.0166015625,0.0892333984375,1.00958251953125,1.876678466796875,-4.41131591796875,-1.099090576171875,1,1.0,4.0,2.0,1.0,65.00
2020-03-09 16:15:49.811,,,,,,,,,,,,,,,,,,,,,,,,,,,,,,,,,,,,,,/muse/elements/jaw_clench
2020-03-09 16:15:51.217,,,,,,,,,,,,,,,,,,,,,,,,,,,,,,,,,,,,,,/muse/elements/jaw_clench
2020-03-09 16:15:51.273,0.39791018,0.0,-1.2951279,0.47132978,0.03622965,0.0,-2.138334,-0.031182684,0.49429274,0.0,-1.137125,0.32785794,0.23157038,0.0,-1.245972,0.23458329,-0.09178434,0.0,-1.3853976,-0.123322,794.9817,627.76556,599.9634,790.54944,718.8278,0.01507568359375,0.0927734375,1.00823974609375,1.973876953125,-4.912261962890625,-0.874786376953125,1,1.0,4.0,2.0,1.0,65.00
2020-03-09 16:15:53.056,,,,,,,,,,,,,,,,,,,,,,,,,,,,,,,,,,,,,,/muse/elements/jaw_clench
2020-03-09 16:15:53.325,0.33123636,0.0,-1.2951279,0.26662886,0.27479437,0.0,-2.138334,0.23567833,0.37189838,0.0,-1.137125,0.5843805,0.28599292,0.0,-1.245972,0.36321002,-0.12690951,0.0,-1.3853976,-0.1142818,755.4945,759.92676,684.9817,765.16486,638.6447,0.01544189453125,0.08966064453125,1.0078125,2.10845947265625,-6.048736572265625,-0.897216796875,1,1.0,4.0,2.0,1.0,65.00
2020-03-09 16:15:53.634,,,,,,,,,,,,,,,,,,,,,,,,,,,,,,,,,,,,,,/muse/elements/jaw_clench
2020-03-09 16:15:55.327,,,,,,,,,,,,,,,,,,,,,,,,,,,,,,,,,,,,,,/muse/elements/jaw_clench
2020-03-09 16:15:55.345,0.14295737,0.0,-1.2951279,0.2351995,0.3923583,0.0,-2.138334,0.27244082,0.4502229,0.0,-1.137125,0.4383641,0.15798753,0.0,-1.245972,0.12767273,-0.25677162,0.0,-1.3853976,-0.17116393,762.74725,563.2967,525.42126,763.5531,622.9304,0.0115966796875,0.08868408203125,1.0126953125,2.392578125,-5.15899658203125,-1.09161376953125,1,1.0,4.0,2.0,1.0,65.00
2020-03-09 16:15:57.318,,,,,,,,,,,,,,,,,,,,,,,,,,,,,,,,,,,,,,/muse/elements/jaw_clench
2020-03-09 16:15:57.367,0.23826797,0.0,-1.2951279,0.49529114,0.45262447,0.0,-2.138334,0.5455923,0.584101,0.0,-1.137125,0.6544353,0.24034439,0.0,-1.245972,0.2584133,-0.268026,0.0,-1.3853976,-0.1494299,766.77655,814.7253,789.34064,769.19415,710.7692,0.00823974609375,0.0877685546875,1.01324462890625,1.65985107421875,-4.8150634765625,-1.353302001953125,1,1.0,4.0,2.0,1.0,65.00
2020-03-09 16:15:58.781,,,,,,,,,,,,,,,,,,,,,,,,,,,,,,,,,,,,,,/muse/elements/jaw_clench
2020-03-09 16:15:59.371,0.34256297,0.0,-1.2951279,0.39230925,0.6052348,0.0,-2.138334,0.66605717,0.35597184,0.0,-1.137125,0.5478898,0.1583868,0.0,-1.245972,0.23949033,-0.11802805,0.0,-1.3853976,-0.021716489,827.619,1057.2894,1050.8425,833.2601,917.0696,0.01336669921875,0.09149169921875,1.0081787109375,2.213134765625,-4.964599609375,-0.785064697265625,1,1.0,4.0,2.0,1.0,65.00
2020-03-09 16:16:00.501,,,,,,,,,,,,,,,,,,,,,,,,,,,,,,,,,,,,,,/muse/elements/jaw_clench
2020-03-09 16:16:00.865,,,,,,,,,,,,,,,,,,,,,,,,,,,,,,,,,,,,,,/muse/elements/jaw_clench
2020-03-09 16:16:01.374,-0.18807285,0.0,-1.2951279,0.32757542,0.38087344,0.0,-2.138334,0.45020935,0.50505304,0.0,-1.137125,0.6734347,0.14583415,0.0,-1.245972,0.2047125,-0.35841736,0.0,-1.3853976,-0.18362612,828.8278,926.337,952.1245,819.15753,792.96704,0.01544189453125,0.088623046875,1.00726318359375,2.4822998046875,-5.046844482421875,-0.6878662109375,1,1.0,4.0,2.0,1.0,65.00
2020-03-09 16:16:01.972,,,,,,,,,,,,,,,,,,,,,,,,,,,,,,,,,,,,,,/muse/elements/jaw_clench
2020-03-09 16:16:02.276,,,,,,,,,,,,,,,,,,,,,,,,,,,,,,,,,,,,,,/muse/elements/jaw_clench
2020-03-09 16:16:03.389,-0.1290012,0.0,-1.2951279,0.055565625,0.46996385,0.0,-2.138334,0.35633534,0.469685,0.0,-1.137125,0.6723021,0.22163866,0.0,-1.245972,0.28290868,-0.25666898,0.0,-1.3853976,-0.2825602,774.43225,628.5714,587.47253,772.01465,609.2308,0.01544189453125,0.08935546875,1.00909423828125,2.213134765625,-5.54779052734375,-1.368255615234375,1,1.0,4.0,2.0,1.0,65.00
2020-03-09 16:16:04.134,,,,,,,,,,,,,,,,,,,,,,,,,,,,,,,,,,,,,,/muse/elements/blink
2020-03-09 16:16:04.186,,,,,,,,,,,,,,,,,,,,,,,,,,,,,,,,,,,,,,/muse/elements/jaw_clench
2020-03-09 16:16:04.304,,,,,,,,,,,,,,,,,,,,,,,,,,,,,,,,,,,,,,/muse/elements/blink
2020-03-09 16:16:04.398,,,,,,,,,,,,,,,,,,,,,,,,,,,,,,,,,,,,,,/muse/elements/jaw_clench
2020-03-09 16:16:04.622,,,,,,,,,,,,,,,,,,,,,,,,,,,,,,,,,,,,,,/muse/elements/jaw_clench
2020-03-09 16:16:05.397,0.33414736,0.0,-1.2951279,0.5731892,0.47430992,0.0,-2.138334,0.46187004,0.82373947,0.0,-1.137125,0.78091496,0.27739412,0.0,-1.245972,0.44542387,-0.046119608,0.0,-1.3853976,-0.20491782,777.25275,750.65936,729.304,786.9231,705.5311,0.01629638671875,0.09307861328125,1.01190185546875,2.1832275390625,-5.435638427734375,-1.084136962890625,1,1.0,4.0,2.0,1.0,65.00
2020-03-09 16:16:05.697,,,,,,,,,,,,,,,,,,,,,,,,,,,,,,,,,,,,,,/muse/elements/jaw_clench
2020-03-09 16:16:06.440,,,,,,,,,,,,,,,,,,,,,,,,,,,,,,,,,,,,,,/muse/elements/jaw_clench
2020-03-09 16:16:07.460,0.69562435,0.0,-1.2951279,0.69719625,0.61683697,0.0,-2.138334,0.6390587,0.652549,0.0,-1.137125,0.5504443,0.316852,0.0,-1.245972,0.30841962,-0.05309009,0.0,-1.3853976,-0.11462107,748.6447,549.59705,550.80585,759.5238,675.7143,0.01348876953125,0.09088134765625,1.0106201171875,2.250518798828125,-4.59075927734375,-0.829925537109375,1,1.0,4.0,2.0,1.0,60.00
2020-03-09 16:16:07.761,,,,,,,,,,,,,,,,,,,,,,,,,,,,,,,,,,,,,,/muse/elements/jaw_clench
2020-03-09 16:16:08.041,,,,,,,,,,,,,,,,,,,,,,,,,,,,,,,,,,,,,,/muse/elements/jaw_clench
2020-03-09 16:16:09.331,,,,,,,,,,,,,,,,,,,,,,,,,,,,,,,,,,,,,,/muse/elements/jaw_clench
2020-03-09 16:16:09.547,0.68640804,0.0,-1.2951279,0.46357727,0.3456505,0.0,-2.138334,0.4391725,0.2057917,0.0,-1.137125,0.5109177,0.16642433,0.0,-1.245972,0.3298268,-0.4199838,0.0,-1.3853976,-0.2897341,844.5421,1082.674,991.2088,834.0659,787.72894,0.00946044921875,0.08953857421875,1.00811767578125,1.667327880859375,-4.373931884765625,-1.2261962890625,1,1.0,4.0,2.0,1.0,60.00
2020-03-09 16:16:09.612,,,,,,,,,,,,,,,,,,,,,,,,,,,,,,,,,,,,,,/muse/elements/jaw_clench
2020-03-09 16:16:10.731,,,,,,,,,,,,,,,,,,,,,,,,,,,,,,,,,,,,,,/muse/elements/jaw_clench
2020-03-09 16:16:10.887,,,,,,,,,,,,,,,,,,,,,,,,,,,,,,,,,,,,,,/muse/elements/jaw_clench
2020-03-09 16:16:11.563,0.5518275,0.0,-1.2951279,0.3261391,0.6356092,0.0,-2.138334,0.5293974,0.75432897,0.0,-1.137125,0.5931156,0.28818357,0.0,-1.245972,0.17674814,-0.13158014,0.0,-1.3853976,-0.15670355,778.0586,759.92676,737.3626,785.7143,828.8278,0.01300048828125,0.09033203125,1.0130615234375,2.474822998046875,-5.196380615234375,-0.64300537109375,1,1.0,4.0,2.0,1.0,60.00
2020-03-09 16:16:12.128,,,,,,,,,,,,,,,,,,,,,,,,,,,,,,,,,,,,,,/muse/elements/blink
2020-03-09 16:16:12.458,,,,,,,,,,,,,,,,,,,,,,,,,,,,,,,,,,,,,,/muse/elements/jaw_clench
2020-03-09 16:16:12.885,,,,,,,,,,,,,,,,,,,,,,,,,,,,,,,,,,,,,,/muse/elements/jaw_clench
2020-03-09 16:16:13.589,0.21725045,0.0,-1.2951279,0.3541615,0.4872312,0.0,-2.138334,0.5711279,0.5225217,0.0,-1.137125,0.52375025,0.22756204,0.0,-1.245972,0.30962792,-0.25311437,0.0,-1.3853976,-0.23817767,850.989,1384.0659,1306.7032,842.9304,874.35895,0.01336669921875,0.08856201171875,0.99871826171875,2.145843505859375,-4.463653564453125,-1.293487548828125,1,1.0,4.0,2.0,1.0,60.00
2020-03-09 16:16:13.742,,,,,,,,,,,,,,,,,,,,,,,,,,,,,,,,,,,,,,/muse/elements/jaw_clench
2020-03-09 16:16:14.462,,,,,,,,,,,,,,,,,,,,,,,,,,,,,,,,,,,,,,/muse/elements/jaw_clench
2020-03-09 16:16:15.170,,,,,,,,,,,,,,,,,,,,,,,,,,,,,,,,,,,,,,/muse/elements/jaw_clench
2020-03-09 16:16:15.607,0.83538944,0.0,-1.2951279,0.8154862,0.62365973,0.0,-2.138334,0.5434676,0.6171664,0.0,-1.137125,0.65514284,0.16246258,0.0,-1.245972,0.2554853,-0.33866197,0.0,-1.3853976,-0.20775989,807.8755,695.8608,691.4286,796.99634,852.1978,0.0205078125,0.0875244140625,1.00799560546875,2.340240478515625,-4.762725830078125,-0.657958984375,1,1.0,4.0,2.0,1.0,60.00
2020-03-09 16:16:15.710,,,,,,,,,,,,,,,,,,,,,,,,,,,,,,,,,,,,,,/muse/elements/jaw_clench
2020-03-09 16:16:16.311,,,,,,,,,,,,,,,,,,,,,,,,,,,,,,,,,,,,,,/muse/elements/jaw_clench
2020-03-09 16:16:16.931,,,,,,,,,,,,,,,,,,,,,,,,,,,,,,,,,,,,,,/muse/elements/jaw_clench
2020-03-09 16:16:17.656,0.96358174,0.0,-1.2951279,1.1601694,0.50919396,0.0,-2.138334,0.7505543,0.17923127,0.0,-1.137125,0.4036021,0.16215001,0.0,-1.245972,0.43183103,-0.19095479,0.0,-1.3853976,-0.0014789898,746.2271,684.9817,578.20514,743.00366,574.57874,0.0216064453125,0.0888671875,1.00640869140625,2.572021484375,-6.08612060546875,-0.755157470703125,1,1.0,4.0,2.0,1.0,65.00
2020-03-09 16:16:18.714,,,,,,,,,,,,,,,,,,,,,,,,,,,,,,,,,,,,,,/muse/elements/jaw_clench
2020-03-09 16:16:19.534,,,,,,,,,,,,,,,,,,,,,,,,,,,,,,,,,,,,,,/muse/elements/jaw_clench
2020-03-09 16:16:19.692,0.104662396,0.0,-1.2951279,-0.112644605,0.16099223,0.0,-2.138334,0.25423816,0.61438435,0.0,-1.137125,0.7635188,0.3329823,0.0,-1.245972,0.17102288,-0.1542335,0.0,-1.3853976,-0.16946758,773.6264,710.7692,648.71796,767.98535,552.01465,0.0174560546875,0.08984375,1.00628662109375,2.594451904296875,-5.196380615234375,-0.85235595703125,1,1.0,4.0,2.0,1.0,65.00
2020-03-09 16:16:20.201,,,,,,,,,,,,,,,,,,,,,,,,,,,,,,,,,,,,,,/muse/elements/jaw_clench
2020-03-09 16:16:21.774,0.41222367,0.0,-1.2951279,0.43113008,0.41778773,0.0,-2.138334,0.46751383,0.59530705,0.0,-1.137125,0.42967972,0.16237302,0.0,-1.245972,0.16901581,-0.39813137,0.0,-1.3853976,-0.22604938,759.5238,624.1392,585.4579,774.83514,814.7253,0.02020263671875,0.09002685546875,1.005126953125,2.564544677734375,-4.3963623046875,-0.740203857421875,1,1.0,4.0,2.0,1.0,65.00
2020-03-09 16:16:22.378,,,,,,,,,,,,,,,,,,,,,,,,,,,,,,,,,,,,,,/muse/elements/jaw_clench
2020-03-09 16:16:22.644,,,,,,,,,,,,,,,,,,,,,,,,,,,,,,,,,,,,,,/muse/elements/jaw_clench
2020-03-09 16:16:22.713,,,,,,,,,,,,,,,,,,,,,,,,,,,,,,,,,,,,,,/muse/elements/jaw_clench
2020-03-09 16:16:23.616,,,,,,,,,,,,,,,,,,,,,,,,,,,,,,,,,,,,,,/muse/elements/jaw_clench
2020-03-09 16:16:23.793,0.18893689,0.0,-1.2951279,0.30152845,0.640867,0.0,-2.138334,0.7667499,0.5769067,0.0,-1.137125,0.5602205,0.23220068,0.0,-1.245972,0.24964339,-0.13867933,0.0,-1.3853976,-0.31222156,828.4249,1075.4213,971.4652,826.8132,757.50916,0.01727294921875,0.08831787109375,1.01007080078125,1.921539306640625,-5.136566162109375,-1.009368896484375,1,1.0,4.0,2.0,1.0,65.00
2020-03-09 16:16:24.718,,,,,,,,,,,,,,,,,,,,,,,,,,,,,,,,,,,,,,/muse/elements/jaw_clench
2020-03-09 16:16:24.884,,,,,,,,,,,,,,,,,,,,,,,,,,,,,,,,,,,,,,/muse/elements/jaw_clench
2020-03-09 16:16:25.851,0.3661556,0.0,-1.2951279,0.51761407,0.20296872,0.0,-2.138334,0.270557,0.21299988,0.0,-1.137125,0.6968024,0.3087855,0.0,-1.245972,0.33880422,-0.46453917,0.0,-1.3853976,-0.26515755,797.8022,845.7509,799.81683,813.91943,890.4762,0.0233154296875,0.0926513671875,1.00762939453125,2.489776611328125,-4.83001708984375,-1.09161376953125,1,1.0,4.0,2.0,1.0,65.00
2020-03-09 16:16:25.989,,,,,,,,,,,,,,,,,,,,,,,,,,,,,,,,,,,,,,/muse/elements/jaw_clench
2020-03-09 16:16:26.599,,,,,,,,,,,,,,,,,,,,,,,,,,,,,,,,,,,,,,/muse/elements/jaw_clench
2020-03-09 16:16:27.860,0.41222593,0.0,-1.2951279,0.3819734,0.56137097,0.0,-2.138334,0.2337221,0.68563956,0.0,-1.137125,0.42137307,0.22466673,0.0,-1.245972,0.1264923,-0.32350847,0.0,-1.3853976,-0.26436415,774.83514,733.3333,670.87915,787.72894,591.0989,0.02044677734375,0.0860595703125,1.00970458984375,2.190704345703125,-4.85992431640625,-0.9271240234375,1,1.0,4.0,2.0,1.0,70.00
2020-03-09 16:16:27.926,,,,,,,,,,,,,,,,,,,,,,,,,,,,,,,,,,,,,,/muse/elements/jaw_clench
2020-03-09 16:16:28.184,,,,,,,,,,,,,,,,,,,,,,,,,,,,,,,,,,,,,,/muse/elements/jaw_clench
2020-03-09 16:16:28.632,,,,,,,,,,,,,,,,,,,,,,,,,,,,,,,,,,,,,,/muse/elements/jaw_clench
2020-03-09 16:16:29.867,0.72515243,0.0,-1.2951279,0.8876727,0.17420474,0.0,-2.138334,0.3451664,0.47582352,0.0,-1.137125,0.48127708,0.17100804,0.0,-1.245972,0.20821275,-0.22520897,0.0,-1.3853976,-0.19698466,749.0476,507.28937,500.43958,745.42126,653.1502,0.0201416015625,0.09161376953125,1.0118408203125,1.906585693359375,-5.3533935546875,-1.338348388671875,1,1.0,4.0,2.0,1.0,70.00
2020-03-09 16:16:30.072,,,,,,,,,,,,,,,,,,,,,,,,,,,,,,,,,,,,,,/muse/elements/jaw_clench
2020-03-09 16:16:30.398,,,,,,,,,,,,,,,,,,,,,,,,,,,,,,,,,,,,,,/muse/elements/jaw_clench
2020-03-09 16:16:31.684,,,,,,,,,,,,,,,,,,,,,,,,,,,,,,,,,,,,,,/muse/elements/jaw_clench
2020-03-09 16:16:31.900,0.2405001,0.0,-1.2951279,0.31977338,0.19880296,0.0,-2.138334,0.32367808,0.57394016,0.0,-1.137125,0.30188498,0.17723265,0.0,-1.245972,0.41211984,-0.15212202,0.0,-1.3853976,-0.24651921,834.4689,1061.3187,1000.07324,828.022,853.8095,0.02142333984375,0.0882568359375,1.00860595703125,2.13836669921875,-5.001983642578125,-0.575714111328125,1,1.0,4.0,2.0,1.0,70.00
2020-03-09 16:16:32.870,,,,,,,,,,,,,,,,,,,,,,,,,,,,,,,,,,,,,,/muse/elements/jaw_clench
2020-03-09 16:16:33.315,,,,,,,,,,,,,,,,,,,,,,,,,,,,,,,,,,,,,,/muse/elements/jaw_clench
2020-03-09 16:16:33.404,,,,,,,,,,,,,,,,,,,,,,,,,,,,,,,,,,,,,,/muse/elements/blink
2020-03-09 16:16:33.938,-0.0612053,0.0,-1.2951279,-0.019670779,0.3980919,0.0,-2.138334,0.24564855,0.28956243,0.0,-1.137125,0.3779603,-0.015536757,0.0,-1.245972,-0.0012690034,-0.057831634,0.0,-1.3853976,-0.2548508,844.94507,1288.1685,1168.0952,837.6923,817.9487,0.023193359375,0.091796875,1.00848388671875,1.854248046875,-5.27862548828125,-0.85235595703125,1,1.0,4.0,2.0,1.0,70.00
2020-03-09 16:16:33.943,,,,,,,,,,,,,,,,,,,,,,,,,,,,,,,,,,,,,,/muse/elements/jaw_clench
2020-03-09 16:16:34.107,,,,,,,,,,,,,,,,,,,,,,,,,,,,,,,,,,,,,,/muse/elements/jaw_clench
2020-03-09 16:16:35.289,,,,,,,,,,,,,,,,,,,,,,,,,,,,,,,,,,,,,,/muse/elements/jaw_clench
2020-03-09 16:16:35.680,,,,,,,,,,,,,,,,,,,,,,,,,,,,,,,,,,,,,,/muse/elements/jaw_clench
2020-03-09 16:16:35.956,0.10512053,0.0,-1.2951279,0.19700226,0.21958509,0.0,-2.138334,0.257499,0.46996418,0.0,-1.137125,0.5880427,0.08689871,0.0,-1.245972,0.0031249728,-0.25190628,0.0,-1.3853976,-0.25865296,803.0403,457.72894,514.1392,803.0403,892.0879,0.02764892578125,0.08917236328125,1.01202392578125,2.818756103515625,-5.06927490234375,-0.351409912109375,1,1.0,4.0,2.0,1.0,70.00
2020-03-09 16:16:37.061,,,,,,,,,,,,,,,,,,,,,,,,,,,,,,,,,,,,,,/muse/elements/jaw_clench
2020-03-09 16:16:37.571,,,,,,,,,,,,,,,,,,,,,,,,,,,,,,,,,,,,,,/muse/elements/jaw_clench
2020-03-09 16:16:38.000,0.13852274,0.0,-1.2951279,0.38391507,0.5224302,0.0,-2.138334,0.3648137,0.4807682,0.0,-1.137125,0.38098386,0.20679349,0.0,-1.245972,0.19670402,-0.25562614,0.0,-1.3853976,-0.15207085,837.6923,1090.7325,1056.8865,829.6337,874.7619,0.02032470703125,0.086669921875,1.00836181640625,1.921539306640625,-4.94964599609375,-1.233673095703125,1,1.0,4.0,2.0,1.0,70.00
2020-03-09 16:16:38.497,,,,,,,,,,,,,,,,,,,,,,,,,,,,,,,,,,,,,,/muse/elements/jaw_clench
2020-03-09 16:16:39.502,,,,,,,,,,,,,,,,,,,,,,,,,,,,,,,,,,,,,,/muse/elements/jaw_clench
2020-03-09 16:16:39.729,,,,,,,,,,,,,,,,,,,,,,,,,,,,,,,,,,,,,,/muse/elements/jaw_clench
2020-03-09 16:16:40.020,0.77562815,0.0,-1.2951279,0.4657194,0.45730674,0.0,-2.138334,-0.049186163,0.40797848,0.0,-1.137125,0.14145173,0.2115037,0.0,-1.245972,0.31855482,-0.18236753,0.0,-1.3853976,-0.2634921,775.2381,591.0989,553.22345,776.8498,558.46155,0.0245361328125,0.08575439453125,1.0086669921875,2.579498291015625,-4.20196533203125,-1.15142822265625,1,1.0,4.0,2.0,1.0,75.00
2020-03-09 16:16:40.657,,,,,,,,,,,,,,,,,,,,,,,,,,,,,,,,,,,,,,/muse/elements/jaw_clench
2020-03-09 16:16:40.807,,,,,,,,,,,,,,,,,,,,,,,,,,,,,,,,,,,,,,/muse/elements/jaw_clench
2020-03-09 16:16:41.274,,,,,,,,,,,,,,,,,,,,,,,,,,,,,,,,,,,,,,/muse/elements/blink
2020-03-09 16:16:41.274,,,,,,,,,,,,,,,,,,,,,,,,,,,,,,,,,,,,,,/muse/elements/jaw_clench
2020-03-09 16:16:41.777,,,,,,,,,,,,,,,,,,,,,,,,,,,,,,,,,,,,,,/muse/elements/jaw_clench
2020-03-09 16:16:42.061,-0.34136394,0.0,-1.2951279,0.09903079,-0.12707804,0.0,-2.138334,0.34621954,0.14412342,0.0,-1.137125,0.52576774,-0.008257772,0.0,-1.245972,0.13741545,-0.15257454,0.0,-1.3853976,-0.1585753,774.83514,650.32965,593.1135,774.0293,593.91943,0.02703857421875,0.09075927734375,1.01092529296875,2.811279296875,-5.316009521484375,-0.545806884765625,1,1.0,4.0,2.0,1.0,75.00
2020-03-09 16:16:42.459,,,,,,,,,,,,,,,,,,,,,,,,,,,,,,,,,,,,,,/muse/elements/jaw_clench
2020-03-09 16:16:43.585,,,,,,,,,,,,,,,,,,,,,,,,,,,,,,,,,,,,,,/muse/elements/jaw_clench
2020-03-09 16:16:44.079,0.7139694,0.0,-1.2951279,0.39068905,0.5517173,0.0,-2.138334,0.2674854,0.5217627,0.0,-1.137125,0.25783184,0.25508052,0.0,-1.245972,0.13299571,-0.15338987,0.0,-1.3853976,-0.044168346,853.00366,1031.0989,1018.60803,848.97437,902.1612,0.02838134765625,0.087646484375,1.00750732421875,1.79443359375,-5.106658935546875,-1.2261962890625,1,1.0,4.0,2.0,1.0,75.00
2020-03-09 16:16:45.087,,,,,,,,,,,,,,,,,,,,,,,,,,,,,,,,,,,,,,/muse/elements/jaw_clench
2020-03-09 16:16:46.122,0.20080414,0.0,-1.2951279,0.64889526,0.26228353,0.0,-2.138334,0.45858356,0.5224215,0.0,-1.137125,0.55113375,0.39851117,0.0,-1.245972,0.28542295,-0.005366341,0.0,-1.3853976,-0.22185816,759.5238,628.5714,614.87177,760.7326,581.02563,0.0250244140625,0.08758544921875,1.006591796875,2.325286865234375,-5.286102294921875,-1.128997802734375,1,1.0,4.0,2.0,1.0,75.00
2020-03-09 16:16:46.785,,,,,,,,,,,,,,,,,,,,,,,,,,,,,,,,,,,,,,/muse/elements/jaw_clench
2020-03-09 16:16:47.141,,,,,,,,,,,,,,,,,,,,,,,,,,,,,,,,,,,,,,/muse/elements/blink
2020-03-09 16:16:47.342,,,,,,,,,,,,,,,,,,,,,,,,,,,,,,,,,,,,,,/muse/elements/jaw_clench
2020-03-09 16:16:47.606,,,,,,,,,,,,,,,,,,,,,,,,,,,,,,,,,,,,,,/muse/elements/jaw_clench
2020-03-09 16:16:48.161,0.99363285,0.0,-1.2951279,0.84327567,0.59330183,0.0,-2.138334,0.45230964,0.54855573,0.0,-1.137125,0.61957854,0.22328001,0.0,-1.245972,0.417918,-0.18204267,0.0,-1.3853976,-0.14216636,753.47986,430.32968,452.49084,761.13556,711.5751,0.02520751953125,0.089599609375,1.01171875,2.295379638671875,-5.196380615234375,-0.665435791015625,1,1.0,4.0,4.0,1.0,75.00
2020-03-09 16:16:49.961,,,,,,,,,,,,,,,,,,,,,,,,,,,,,,,,,,,,,,/muse/elements/blink
2020-03-09 16:16:49.961,,,,,,,,,,,,,,,,,,,,,,,,,,,,,,,,,,,,,,/muse/elements/jaw_clench
2020-03-09 16:16:50.196,0.35718182,0.0,-1.2951279,0.19127288,0.47377363,0.0,-2.138334,0.6061764,0.6374063,0.0,-1.137125,0.7249397,0.25242263,0.0,-1.245972,0.29641816,-0.17216928,0.0,-1.3853976,-0.1524106,789.7436,823.9927,709.9634,784.10254,590.293,0.02593994140625,0.09130859375,1.00457763671875,1.95892333984375,-5.016937255859375,-1.27105712890625,1,1.0,4.0,2.0,1.0,70.00
2020-03-09 16:16:50.948,,,,,,,,,,,,,,,,,,,,,,,,,,,,,,,,,,,,,,/muse/elements/jaw_clench
2020-03-09 16:16:51.140,,,,,,,,,,,,,,,,,,,,,,,,,,,,,,,,,,,,,,/muse/elements/jaw_clench
2020-03-09 16:16:51.553,,,,,,,,,,,,,,,,,,,,,,,,,,,,,,,,,,,,,,/muse/elements/jaw_clench
2020-03-09 16:16:52.246,-0.077273235,0.0,-1.2951279,0.21552631,0.61023134,0.0,-2.138334,0.6150244,0.3014179,0.0,-1.137125,0.622416,0.06806457,0.0,-1.245972,0.19198188,-0.098088354,0.0,-1.3853976,-0.24237214,758.71796,524.21246,543.5531,761.9414,665.64105,0.03570556640625,0.08514404296875,1.004150390625,1.95892333984375,-5.24871826171875,-0.55328369140625,1,1.0,4.0,2.0,1.0,70.00
2020-03-09 16:16:52.514,,,,,,,,,,,,,,,,,,,,,,,,,,,,,,,,,,,,,,/muse/elements/jaw_clench
2020-03-09 16:16:53.455,,,,,,,,,,,,,,,,,,,,,,,,,,,,,,,,,,,,,,/muse/elements/jaw_clench
2020-03-09 16:16:53.754,,,,,,,,,,,,,,,,,,,,,,,,,,,,,,,,,,,,,,/muse/elements/jaw_clench
2020-03-09 16:16:54.064,,,,,,,,,,,,,,,,,,,,,,,,,,,,,,,,,,,,,,/muse/elements/jaw_clench
2020-03-09 16:16:54.262,0.623329,0.0,-1.2951279,0.5684584,0.36626086,0.0,-2.138334,0.5038576,0.3857449,0.0,-1.137125,0.5246533,0.15621945,0.0,-1.245972,0.27893862,-0.068294294,0.0,-1.3853976,-0.077208884,761.53845,709.5604,673.2967,757.50916,552.01465,0.03753662109375,0.09051513671875,1.01055908203125,2.2430419921875,-5.12908935546875,-0.76263427734375,1,1.0,4.0,4.0,1.0,70.00
2020-03-09 16:16:54.990,,,,,,,,,,,,,,,,,,,,,,,,,,,,,,,,,,,,,,/muse/elements/jaw_clench
2020-03-09 16:16:55.411,,,,,,,,,,,,,,,,,,,,,,,,,,,,,,,,,,,,,,/muse/elements/jaw_clench
2020-03-09 16:16:56.165,,,,,,,,,,,,,,,,,,,,,,,,,,,,,,,,,,,,,,/muse/elements/jaw_clench
2020-03-09 16:16:56.286,0.4743077,0.0,-1.2951279,0.74698347,0.49821386,0.0,-2.138334,0.58262247,0.4040215,0.0,-1.137125,0.67141604,0.24815784,0.0,-1.245972,0.20777394,-0.18393327,0.0,-1.3853976,-0.019569099,784.10254,1019.81683,986.3736,790.14655,752.27106,0.02398681640625,0.08709716796875,1.00506591796875,2.056121826171875,-4.478607177734375,-1.054229736328125,1,1.0,4.0,2.0,1.0,70.00
2020-03-09 16:16:56.884,,,,,,,,,,,,,,,,,,,,,,,,,,,,,,,,,,,,,,/muse/elements/jaw_clench
2020-03-09 16:16:57.477,,,,,,,,,,,,,,,,,,,,,,,,,,,,,,,,,,,,,,/muse/elements/jaw_clench
2020-03-09 16:16:57.737,,,,,,,,,,,,,,,,,,,,,,,,,,,,,,,,,,,,,,/muse/elements/jaw_clench
2020-03-09 16:16:58.055,,,,,,,,,,,,,,,,,,,,,,,,,,,,,,,,,,,,,,/muse/elements/jaw_clench
2020-03-09 16:16:58.261,,,,,,,,,,,,,,,,,,,,,,,,,,,,,,,,,,,,,,/muse/elements/jaw_clench
2020-03-09 16:16:58.330,0.72411776,0.0,-1.2951279,0.5910191,0.43742236,0.0,-2.138334,0.44539642,0.5912601,0.0,-1.137125,0.23933199,0.17017989,0.0,-1.245972,0.16824025,-0.18738078,0.0,-1.3853976,-0.35754305,842.52747,1026.6666,1055.6776,844.94507,960.989,0.0306396484375,0.08966064453125,1.006103515625,2.07855224609375,-5.241241455078125,-1.03179931640625,1,1.0,4.0,2.0,1.0,70.00
2020-03-09 16:16:58.469,,,,,,,,,,,,,,,,,,,,,,,,,,,,,,,,,,,,,,/muse/elements/jaw_clench
2020-03-09 16:16:58.617,,,,,,,,,,,,,,,,,,,,,,,,,,,,,,,,,,,,,,/muse/elements/jaw_clench
2020-03-09 16:16:59.207,,,,,,,,,,,,,,,,,,,,,,,,,,,,,,,,,,,,,,/muse/elements/jaw_clench
2020-03-09 16:16:59.751,,,,,,,,,,,,,,,,,,,,,,,,,,,,,,,,,,,,,,/muse/elements/jaw_clench
2020-03-09 16:17:00.376,0.0559939,0.0,-1.2951279,0.9204655,0.5731896,0.0,-2.138334,0.5607603,0.5824038,0.0,-1.137125,0.5547243,0.07162424,0.0,-1.245972,0.25204882,-0.20469214,0.0,-1.3853976,-0.049487717,826.0073,1008.1319,983.5531,824.3956,790.14655,0.0323486328125,0.0882568359375,1.01361083984375,2.52716064453125,-5.3533935546875,-0.844879150390625,1,1.0,4.0,2.0,1.0,60.00
2020-03-09 16:17:01.511,,,,,,,,,,,,,,,,,,,,,,,,,,,,,,,,,,,,,,/muse/elements/jaw_clench
2020-03-09 16:17:02.328,,,,,,,,,,,,,,,,,,,,,,,,,,,,,,,,,,,,,,/muse/elements/jaw_clench
2020-03-09 16:17:02.398,0.43808076,0.0,-1.2951279,0.6930445,0.024550244,0.0,-2.138334,0.2740111,0.52357566,0.0,-1.137125,0.72047865,0.3048626,0.0,-1.245972,0.28099415,-0.23900534,0.0,-1.3853976,-0.07849359,853.8095,1106.4469,1086.3004,850.18317,873.95605,0.0343017578125,0.09765625,1.00555419921875,2.519683837890625,-5.375823974609375,-0.37384033203125,1,1.0,4.0,4.0,1.0,60.00
2020-03-09 16:17:03.470,,,,,,,,,,,,,,,,,,,,,,,,,,,,,,,,,,,,,,/muse/elements/jaw_clench
2020-03-09 16:17:04.435,0.24928024,0.0,-1.2951279,0.46953467,0.3018953,0.0,-2.138334,0.2611619,0.63266426,0.0,-1.137125,0.6189047,0.12505338,0.0,-1.245972,0.13554408,-0.28293416,0.0,-1.3853976,-0.051532872,800.6227,639.45056,564.10254,785.31134,720.0366,0.03338623046875,0.08331298828125,1.0069580078125,1.996307373046875,-5.091705322265625,-1.099090576171875,1,1.0,4.0,2.0,1.0,60.00
2020-03-09 16:17:04.679,,,,,,,,,,,,,,,,,,,,,,,,,,,,,,,,,,,,,,/muse/elements/jaw_clench
2020-03-09 16:17:06.457,0.8148763,0.0,-1.2951279,0.8615859,0.59846216,0.0,-2.138334,0.613224,0.17959803,0.0,-1.137125,0.5397055,0.37928665,0.0,-1.245972,0.3451797,-0.09601074,0.0,-1.3853976,0.01728006,828.022,905.38464,938.4249,819.5604,741.39197,0.02471923828125,0.0894775390625,1.00872802734375,1.966400146484375,-4.78515625,-0.94207763671875,1,1.0,4.0,2.0,1.0,60.00
2020-03-09 16:17:07.507,,,,,,,,,,,,,,,,,,,,,,,,,,,,,,,,,,,,,,/muse/elements/jaw_clench
2020-03-09 16:17:07.813,,,,,,,,,,,,,,,,,,,,,,,,,,,,,,,,,,,,,,/muse/elements/jaw_clench
2020-03-09 16:17:08.463,,,,,,,,,,,,,,,,,,,,,,,,,,,,,,,,,,,,,,/muse/elements/jaw_clench
2020-03-09 16:17:08.464,-0.1945912,0.0,-1.2951279,0.046554863,0.3145619,0.0,-2.138334,0.13592634,0.5775931,0.0,-1.137125,0.5654852,0.2171183,0.0,-1.245972,0.29161757,-0.28943285,0.0,-1.3853976,-0.03167867,763.5531,659.59705,656.77655,760.32965,676.52014,0.02923583984375,0.08819580078125,1.00830078125,1.95892333984375,-5.2337646484375,-1.293487548828125,1,1.0,4.0,2.0,1.0,60.00
2020-03-09 16:17:10.484,,,,,,,,,,,,,,,,,,,,,,,,,,,,,,,,,,,,,,/muse/elements/jaw_clench
2020-03-09 16:17:10.488,0.0412061,0.0,-1.2951279,0.41521794,0.27382988,0.0,-2.138334,0.42115876,0.5483465,0.0,-1.137125,0.6501884,0.20278153,0.0,-1.245972,0.26320237,-0.33048555,0.0,-1.3853976,-0.21060756,780.4762,969.45056,922.3077,778.86444,728.0952,0.03228759765625,0.08563232421875,1.00579833984375,1.6748046875,-5.734710693359375,-1.54022216796875,1,1.0,4.0,2.0,1.0,65.00
2020-03-09 16:17:11.073,,,,,,,,,,,,,,,,,,,,,,,,,,,,,,,,,,,,,,/muse/elements/jaw_clench
2020-03-09 16:17:11.928,,,,,,,,,,,,,,,,,,,,,,,,,,,,,,,,,,,,,,/muse/elements/jaw_clench
2020-03-09 16:17:12.452,,,,,,,,,,,,,,,,,,,,,,,,,,,,,,,,,,,,,,/muse/elements/jaw_clench
2020-03-09 16:17:12.507,0.24189404,0.0,-1.2951279,-0.022757675,0.40761358,0.0,-2.138334,0.31888646,0.3147596,0.0,-1.137125,0.41759127,0.23890547,0.0,-1.245972,0.15836659,-0.40376377,0.0,-1.3853976,-0.24332207,825.6044,1137.8755,1116.1172,823.1868,843.3333,0.0352783203125,0.08648681640625,1.008056640625,2.145843505859375,-5.091705322265625,-0.770111083984375,1,1.0,4.0,2.0,1.0,65.00
2020-03-09 16:17:12.955,,,,,,,,,,,,,,,,,,,,,,,,,,,,,,,,,,,,,,/muse/elements/jaw_clench
2020-03-09 16:17:13.241,,,,,,,,,,,,,,,,,,,,,,,,,,,,,,,,,,,,,,/muse/elements/jaw_clench
2020-03-09 16:17:13.330,,,,,,,,,,,,,,,,,,,,,,,,,,,,,,,,,,,,,,/muse/elements/blink
2020-03-09 16:17:14.522,0.15591007,0.0,-1.2951279,-0.029305141,0.2559104,0.0,-2.138334,0.36606178,0.09891227,0.0,-1.137125,0.38564333,0.1858432,0.0,-1.245972,0.41882455,-0.09913127,0.0,-1.3853976,-0.2907683,818.3516,682.1612,738.1685,816.337,815.5311,0.031982421875,0.0889892578125,1.003662109375,2.743988037109375,-5.076751708984375,-0.575714111328125,1,1.0,4.0,4.0,1.0,65.00
2020-03-09 16:17:14.527,,,,,,,,,,,,,,,,,,,,,,,,,,,,,,,,,,,,,,/muse/elements/jaw_clench
2020-03-09 16:17:16.112,,,,,,,,,,,,,,,,,,,,,,,,,,,,,,,,,,,,,,/muse/elements/jaw_clench
2020-03-09 16:17:16.258,,,,,,,,,,,,,,,,,,,,,,,,,,,,,,,,,,,,,,/muse/elements/jaw_clench
2020-03-09 16:17:16.566,0.12776944,0.0,-1.2951279,0.014707522,0.06871853,0.0,-2.138334,0.24656713,0.51556313,0.0,-1.137125,0.57177603,0.038328093,0.0,-1.245972,0.311264,-0.23935452,0.0,-1.3853976,-0.25858337,767.98535,801.02563,728.9011,763.95605,591.9048,0.03515625,0.09051513671875,1.00714111328125,2.041168212890625,-5.016937255859375,-0.800018310546875,1,1.0,4.0,4.0,1.0,65.00
2020-03-09 16:17:16.596,,,,,,,,,,,,,,,,,,,,,,,,,,,,,,,,,,,,,,/muse/elements/jaw_clench
2020-03-09 16:17:18.601,-0.1619746,0.0,-1.2951279,0.05913953,-0.049454965,0.0,-2.138334,0.3736559,0.2284501,0.0,-1.137125,0.35166094,0.18572746,0.0,-1.245972,0.20768788,-0.24357936,0.0,-1.3853976,-0.21918543,766.77655,553.22345,561.28204,758.71796,635.0183,0.0333251953125,0.09246826171875,1.01043701171875,2.34771728515625,-4.837493896484375,-0.874786376953125,1,1.0,4.0,2.0,1.0,65.00
2020-03-09 16:17:19.072,,,,,,,,,,,,,,,,,,,,,,,,,,,,,,,,,,,,,,/muse/elements/jaw_clench
2020-03-09 16:17:20.629,0.84348637,0.0,-1.2951279,0.42362016,0.29117534,0.0,-2.138334,0.3263695,0.3075474,0.0,-1.137125,0.34722152,0.19344774,0.0,-1.245972,0.22908433,-0.097604915,0.0,-1.3853976,-0.09362337,771.2088,728.49817,718.4249,780.07324,706.337,0.03369140625,0.088134765625,1.00677490234375,2.594451904296875,-5.3533935546875,-0.61309814453125,1,1.0,4.0,2.0,1.0,65.00
2020-03-09 16:17:21.616,,,,,,,,,,,,,,,,,,,,,,,,,,,,,,,,,,,,,,/muse/elements/jaw_clench
2020-03-09 16:17:21.879,,,,,,,,,,,,,,,,,,,,,,,,,,,,,,,,,,,,,,/muse/elements/jaw_clench
2020-03-09 16:17:22.639,0.8300422,0.0,-1.2951279,0.83325136,0.35865456,0.0,-2.138334,0.43485025,0.46140784,0.0,-1.137125,0.3789109,0.17593287,0.0,-1.245972,0.045315936,-0.06511369,0.0,-1.3853976,-0.031247234,847.76556,986.77655,1005.31134,836.4835,999.67035,0.03143310546875,0.09588623046875,1.01007080078125,1.973876953125,-5.48797607421875,-0.964508056640625,1,1.0,4.0,2.0,1.0,65.00
2020-03-09 16:17:22.811,,,,,,,,,,,,,,,,,,,,,,,,,,,,,,,,,,,,,,/muse/elements/jaw_clench
2020-03-09 16:17:24.620,,,,,,,,,,,,,,,,,,,,,,,,,,,,,,,,,,,,,,/muse/elements/jaw_clench
2020-03-09 16:17:24.690,0.54208815,0.0,-1.2951279,0.23239365,0.78338987,0.0,-2.138334,0.50133646,0.5573058,0.0,-1.137125,0.59545463,0.12389302,0.0,-1.245972,0.33666247,-0.3272569,0.0,-1.3853976,-0.31568924,746.63007,447.65567,493.58975,762.3443,808.2784,0.03704833984375,0.0908203125,1.00872802734375,2.4822998046875,-4.8748779296875,-0.770111083984375,1,1.0,4.0,2.0,1.0,65.00
2020-03-09 16:17:24.952,,,,,,,,,,,,,,,,,,,,,,,,,,,,,,,,,,,,,,/muse/elements/jaw_clench
2020-03-09 16:17:25.297,,,,,,,,,,,,,,,,,,,,,,,,,,,,,,,,,,,,,,/muse/elements/jaw_clench
2020-03-09 16:17:25.424,,,,,,,,,,,,,,,,,,,,,,,,,,,,,,,,,,,,,,/muse/elements/jaw_clench
2020-03-09 16:17:25.521,,,,,,,,,,,,,,,,,,,,,,,,,,,,,,,,,,,,,,/muse/elements/blink
2020-03-09 16:17:25.931,,,,,,,,,,,,,,,,,,,,,,,,,,,,,,,,,,,,,,/muse/elements/jaw_clench
2020-03-09 16:17:26.557,,,,,,,,,,,,,,,,,,,,,,,,,,,,,,,,,,,,,,/muse/elements/jaw_clench
2020-03-09 16:17:26.703,0.5337981,0.0,-1.2951279,0.32381132,0.3231272,0.0,-2.138334,0.29049167,0.5111527,0.0,-1.137125,0.44053507,0.17537245,0.0,-1.245972,0.29898176,-0.20197634,0.0,-1.3853976,-0.10375432,752.27106,737.76556,656.3736,761.53845,520.18317,0.0345458984375,0.091796875,1.0047607421875,2.310333251953125,-4.47113037109375,-1.099090576171875,1,1.0,4.0,2.0,1.0,65.00
2020-03-09 16:17:28.477,,,,,,,,,,,,,,,,,,,,,,,,,,,,,,,,,,,,,,/muse/elements/jaw_clench
2020-03-09 16:17:28.734,0.40019462,0.0,-1.2951279,0.3474391,0.39273906,0.0,-2.138334,0.12009204,0.52857894,0.0,-1.137125,0.6197555,0.17793323,0.0,-1.245972,0.2329917,-0.25052652,0.0,-1.3853976,-0.18667157,756.7033,465.3846,478.27838,757.50916,660.0,0.0325927734375,0.09039306640625,1.010986328125,2.1832275390625,-5.196380615234375,-0.336456298828125,1,1.0,4.0,2.0,1.0,65.00
2020-03-09 16:17:29.416,,,,,,,,,,,,,,,,,,,,,,,,,,,,,,,,,,,,,,/muse/elements/jaw_clench
2020-03-09 16:17:29.614,,,,,,,,,,,,,,,,,,,,,,,,,,,,,,,,,,,,,,/muse/elements/blink
2020-03-09 16:17:30.752,,,,,,,,,,,,,,,,,,,,,,,,,,,,,,,,,,,,,,/muse/elements/jaw_clench
2020-03-09 16:17:30.754,0.5911344,0.0,-1.2951279,0.6521121,0.51145464,0.0,-2.138334,0.6393089,0.45609015,0.0,-1.137125,0.46151754,-0.044434246,0.0,-1.245972,0.32504377,-0.17859572,0.0,-1.3853976,-0.27304432,786.52014,698.2784,701.9048,794.9817,812.71063,0.03424072265625,0.0885009765625,1.00830078125,2.49725341796875,-5.420684814453125,-0.55328369140625,1,1.0,4.0,2.0,1.0,60.00
2020-03-09 16:17:31.135,,,,,,,,,,,,,,,,,,,,,,,,,,,,,,,,,,,,,,/muse/elements/jaw_clench
2020-03-09 16:17:31.282,,,,,,,,,,,,,,,,,,,,,,,,,,,,,,,,,,,,,,/muse/elements/blink
2020-03-09 16:17:31.352,,,,,,,,,,,,,,,,,,,,,,,,,,,,,,,,,,,,,,/muse/elements/jaw_clench
2020-03-09 16:17:32.031,,,,,,,,,,,,,,,,,,,,,,,,,,,,,,,,,,,,,,/muse/elements/jaw_clench
2020-03-09 16:17:32.800,,,,,,,,,,,,,,,,,,,,,,,,,,,,,,,,,,,,,,/muse/elements/jaw_clench
2020-03-09 16:17:32.803,0.017055476,0.0,-1.2951279,-0.036074203,0.19777204,0.0,-2.138334,0.16671188,0.37079456,0.0,-1.137125,-0.039087582,-0.06834469,0.0,-1.245972,0.18385845,-0.24235344,0.0,-1.3853976,-0.29266825,770.0,709.15753,726.4835,783.2967,631.79486,0.03057861328125,0.090087890625,1.007568359375,2.52716064453125,-5.286102294921875,-0.70281982421875,1,1.0,4.0,2.0,1.0,60.00
2020-03-09 16:17:33.005,,,,,,,,,,,,,,,,,,,,,,,,,,,,,,,,,,,,,,/muse/elements/jaw_clench
2020-03-09 16:17:34.341,,,,,,,,,,,,,,,,,,,,,,,,,,,,,,,,,,,,,,/muse/elements/jaw_clench
2020-03-09 16:17:34.841,0.43509376,0.0,-1.2951279,0.2694091,0.30340856,0.0,-2.138334,0.48837703,0.48420006,0.0,-1.137125,0.5896993,0.21545604,0.0,-1.245972,0.40759617,-0.13689727,0.0,-1.3853976,-0.25443035,777.25275,647.1062,640.2564,769.59705,680.14655,0.035400390625,0.086181640625,1.0068359375,2.01873779296875,-4.964599609375,-1.07666015625,1,1.0,4.0,2.0,1.0,60.00
2020-03-09 16:17:34.979,,,,,,,,,,,,,,,,,,,,,,,,,,,,,,,,,,,,,,/muse/elements/blink
2020-03-09 16:17:35.179,,,,,,,,,,,,,,,,,,,,,,,,,,,,,,,,,,,,,,/muse/elements/jaw_clench
2020-03-09 16:17:35.409,,,,,,,,,,,,,,,,,,,,,,,,,,,,,,,,,,,,,,/muse/elements/jaw_clench
2020-03-09 16:17:36.612,,,,,,,,,,,,,,,,,,,,,,,,,,,,,,,,,,,,,,/muse/elements/jaw_clench
2020-03-09 16:17:36.862,0.037530076,0.0,-1.2951279,0.106472,-0.10010721,0.0,-2.138334,-0.050011277,-0.061264094,0.0,-1.137125,0.09286294,0.15491594,0.0,-1.245972,0.5075805,-0.1266668,0.0,-1.3853976,-0.024408469,752.674,558.46155,514.94507,753.0769,616.8865,0.03326416015625,0.08966064453125,1.0064697265625,2.041168212890625,-5.689849853515625,-1.278533935546875,1,1.0,4.0,2.0,1.0,60.00
2020-03-09 16:17:36.896,,,,,,,,,,,,,,,,,,,,,,,,,,,,,,,,,,,,,,/muse/elements/jaw_clench
2020-03-09 16:17:37.172,,,,,,,,,,,,,,,,,,,,,,,,,,,,,,,,,,,,,,/muse/elements/jaw_clench
2020-03-09 16:17:38.305,,,,,,,,,,,,,,,,,,,,,,,,,,,,,,,,,,,,,,/muse/elements/jaw_clench
2020-03-09 16:17:38.936,0.42750785,0.0,-1.2951279,0.2480837,-0.06904856,0.0,-2.138334,0.22148618,0.27229208,0.0,-1.137125,-0.08913787,0.29292157,0.0,-1.245972,0.16404422,-0.15312833,0.0,-1.3853976,-0.16468777,834.87177,938.022,948.0952,830.0366,882.01465,0.04107666015625,0.08856201171875,1.00689697265625,2.70660400390625,-5.480499267578125,-0.897216796875,1,1.0,4.0,2.0,1.0,60.00
2020-03-09 16:17:40.144,,,,,,,,,,,,,,,,,,,,,,,,,,,,,,,,,,,,,,/muse/elements/jaw_clench
2020-03-09 16:17:40.472,,,,,,,,,,,,,,,,,,,,,,,,,,,,,,,,,,,,,,/muse/elements/jaw_clench
2020-03-09 16:17:40.951,0.7974115,0.0,-1.2951279,0.7591342,0.5336671,0.0,-2.138334,0.5227573,0.550868,0.0,-1.137125,0.49799648,0.3065848,0.0,-1.245972,0.13169718,-0.25532272,0.0,-1.3853976,-0.16422977,842.52747,1309.1208,1212.4176,838.49817,868.71796,0.0382080078125,0.0875244140625,1.009033203125,2.250518798828125,-5.106658935546875,-0.8673095703125,1,1.0,4.0,2.0,1.0,65.00
2020-03-09 16:17:41.696,,,,,,,,,,,,,,,,,,,,,,,,,,,,,,,,,,,,,,/muse/elements/jaw_clench
2020-03-09 16:17:41.874,,,,,,,,,,,,,,,,,,,,,,,,,,,,,,,,,,,,,,/muse/elements/jaw_clench
2020-03-09 16:17:42.194,,,,,,,,,,,,,,,,,,,,,,,,,,,,,,,,,,,,,,/muse/elements/jaw_clench
2020-03-09 16:17:42.768,,,,,,,,,,,,,,,,,,,,,,,,,,,,,,,,,,,,,,/muse/elements/jaw_clench
2020-03-09 16:17:42.981,,,,,,,,,,,,,,,,,,,,,,,,,,,,,,,,,,,,,,/muse/elements/jaw_clench
2020-03-09 16:17:42.985,0.9491851,0.0,-1.2951279,1.3361161,0.49704546,0.0,-2.138334,0.882992,0.45767453,0.0,-1.137125,0.7088227,0.20026875,0.0,-1.245972,0.3211708,-0.19511409,0.0,-1.3853976,-0.23924004,813.91943,388.82785,453.69965,802.6374,794.17584,0.03668212890625,0.0892333984375,1.00799560546875,2.22808837890625,-5.263671875,-1.099090576171875,1,1.0,4.0,2.0,1.0,65.00
2020-03-09 16:17:43.076,,,,,,,,,,,,,,,,,,,,,,,,,,,,,,,,,,,,,,/muse/elements/blink
2020-03-09 16:17:44.039,,,,,,,,,,,,,,,,,,,,,,,,,,,,,,,,,,,,,,/muse/elements/jaw_clench
2020-03-09 16:17:44.288,,,,,,,,,,,,,,,,,,,,,,,,,,,,,,,,,,,,,,/muse/elements/jaw_clench
2020-03-09 16:17:44.696,,,,,,,,,,,,,,,,,,,,,,,,,,,,,,,,,,,,,,/muse/elements/blink
2020-03-09 16:17:44.831,,,,,,,,,,,,,,,,,,,,,,,,,,,,,,,,,,,,,,/muse/elements/jaw_clench
2020-03-09 16:17:45.002,-0.030797878,0.0,-1.2951279,0.53899825,0.21149899,0.0,-2.138334,0.6806257,0.32975882,0.0,-1.137125,0.65656704,0.16688912,0.0,-1.245972,0.20013411,-0.010128151,0.0,-1.3853976,-0.2190096,758.315,703.1135,727.28937,772.8205,726.4835,0.0377197265625,0.08721923828125,1.00689697265625,2.31781005859375,-5.046844482421875,-0.94207763671875,1,1.0,4.0,2.0,1.0,65.00
2020-03-09 16:17:45.897,,,,,,,,,,,,,,,,,,,,,,,,,,,,,,,,,,,,,,/muse/elements/jaw_clench
2020-03-09 16:17:46.392,,,,,,,,,,,,,,,,,,,,,,,,,,,,,,,,,,,,,,/muse/elements/jaw_clench
2020-03-09 16:17:46.540,,,,,,,,,,,,,,,,,,,,,,,,,,,,,,,,,,,,,,/muse/elements/jaw_clench
2020-03-09 16:17:47.065,1.2269291,0.0,-1.2951279,0.60167485,0.9336322,0.0,-2.138334,0.6968819,0.6017847,0.0,-1.137125,0.65582186,0.39025345,0.0,-1.245972,0.18762702,-0.043863986,0.0,-1.3853976,-0.19529986,828.022,1317.5824,1233.37,826.8132,767.98535,0.0391845703125,0.09222412109375,1.0086669921875,1.906585693359375,-5.600128173828125,-1.248626708984375,1,1.0,4.0,2.0,1.0,65.00
2020-03-09 16:17:47.202,,,,,,,,,,,,,,,,,,,,,,,,,,,,,,,,,,,,,,/muse/elements/jaw_clench
2020-03-09 16:17:47.436,,,,,,,,,,,,,,,,,,,,,,,,,,,,,,,,,,,,,,/muse/elements/jaw_clench
2020-03-09 16:17:47.750,,,,,,,,,,,,,,,,,,,,,,,,,,,,,,,,,,,,,,/muse/elements/jaw_clench
2020-03-09 16:17:49.120,1.2008055,0.0,-1.2951279,1.2482034,0.3489029,0.0,-2.138334,0.58216685,0.12151246,0.0,-1.137125,0.40604222,0.12747963,0.0,-1.245972,0.20560686,-0.13220997,0.0,-1.3853976,-0.15045387,807.8755,993.22345,956.55676,805.4579,872.74725,0.0438232421875,0.09222412109375,1.00738525390625,1.906585693359375,-5.38330078125,-0.844879150390625,1,1.0,4.0,2.0,1.0,65.00
2020-03-09 16:17:49.430,,,,,,,,,,,,,,,,,,,,,,,,,,,,,,,,,,,,,,/muse/elements/jaw_clench
2020-03-09 16:17:49.613,,,,,,,,,,,,,,,,,,,,,,,,,,,,,,,,,,,,,,/muse/elements/jaw_clench
2020-03-09 16:17:49.791,,,,,,,,,,,,,,,,,,,,,,,,,,,,,,,,,,,,,,/muse/elements/jaw_clench
2020-03-09 16:17:50.759,,,,,,,,,,,,,,,,,,,,,,,,,,,,,,,,,,,,,,/muse/elements/jaw_clench
2020-03-09 16:17:50.933,,,,,,,,,,,,,,,,,,,,,,,,,,,,,,,,,,,,,,/muse/elements/jaw_clench
2020-03-09 16:17:51.173,0.56742895,0.0,-1.2951279,0.31831014,0.14482234,0.0,-2.138334,0.1649835,0.6355031,0.0,-1.137125,0.4739588,0.27575576,0.0,-1.245972,0.29175565,-0.031197637,0.0,-1.3853976,0.045304902,788.5348,795.38464,708.3516,788.93774,599.9634,0.0391845703125,0.08673095703125,1.00775146484375,2.332763671875,-4.717864990234375,-0.73272705078125,1,1.0,4.0,2.0,1.0,65.00
2020-03-09 16:17:51.267,,,,,,,,,,,,,,,,,,,,,,,,,,,,,,,,,,,,,,/muse/elements/jaw_clench
2020-03-09 16:17:51.440,,,,,,,,,,,,,,,,,,,,,,,,,,,,,,,,,,,,,,/muse/elements/jaw_clench
2020-03-09 16:17:52.156,,,,,,,,,,,,,,,,,,,,,,,,,,,,,,,,,,,,,,/muse/elements/jaw_clench
2020-03-09 16:17:53.089,,,,,,,,,,,,,,,,,,,,,,,,,,,,,,,,,,,,,,/muse/elements/jaw_clench
2020-03-09 16:17:53.202,0.9102579,0.0,-1.2951279,0.7829891,0.7552539,0.0,-2.138334,0.69223386,0.9671809,0.0,-1.137125,0.8826021,0.30924287,0.0,-1.245972,0.2932224,-0.05363288,0.0,-1.3853976,-0.12102366,749.85345,425.09158,436.37363,753.0769,788.93774,0.03564453125,0.0885009765625,1.00634765625,2.295379638671875,-4.807586669921875,-0.665435791015625,1,1.0,4.0,2.0,1.0,65.00
2020-03-09 16:17:55.224,0.80967873,0.0,-1.2951279,0.79985,0.5749776,0.0,-2.138334,0.62981117,0.6718892,0.0,-1.137125,0.45301235,0.17680155,0.0,-1.245972,0.22273526,-0.19574046,0.0,-1.3853976,-0.3453952,750.65936,715.6044,665.2381,756.30035,572.5641,0.03607177734375,0.0885009765625,1.009521484375,2.160797119140625,-4.882354736328125,-0.889739990234375,1,1.0,4.0,2.0,1.0,65.00
2020-03-09 16:17:55.410,,,,,,,,,,,,,,,,,,,,,,,,,,,,,,,,,,,,,,/muse/elements/jaw_clench
2020-03-09 16:17:55.726,,,,,,,,,,,,,,,,,,,,,,,,,,,,,,,,,,,,,,/muse/elements/jaw_clench
2020-03-09 16:17:55.935,,,,,,,,,,,,,,,,,,,,,,,,,,,,,,,,,,,,,,/muse/elements/jaw_clench
2020-03-09 16:17:56.113,,,,,,,,,,,,,,,,,,,,,,,,,,,,,,,,,,,,,,/muse/elements/jaw_clench
2020-03-09 16:17:57.243,0.17089094,0.0,-1.2951279,0.0879467,0.22151724,0.0,-2.138334,0.31874117,0.5363471,0.0,-1.137125,0.8070747,0.24905619,0.0,-1.245972,0.23531654,-0.1481808,0.0,-1.3853976,-0.08439137,792.96704,1001.28204,956.1539,794.9817,857.03296,0.0321044921875,0.08966064453125,1.0079345703125,2.093505859375,-4.658050537109375,-0.874786376953125,1,1.0,4.0,2.0,1.0,65.00
2020-03-09 16:17:57.392,,,,,,,,,,,,,,,,,,,,,,,,,,,,,,,,,,,,,,/muse/elements/jaw_clench
2020-03-09 16:17:57.516,,,,,,,,,,,,,,,,,,,,,,,,,,,,,,,,,,,,,,/muse/elements/jaw_clench
2020-03-09 16:17:58.568,,,,,,,,,,,,,,,,,,,,,,,,,,,,,,,,,,,,,,/muse/elements/jaw_clench
2020-03-09 16:17:59.074,,,,,,,,,,,,,,,,,,,,,,,,,,,,,,,,,,,,,,/muse/elements/jaw_clench
2020-03-09 16:17:59.172,,,,,,,,,,,,,,,,,,,,,,,,,,,,,,,,,,,,,,/muse/elements/blink
2020-03-09 16:17:59.255,,,,,,,,,,,,,,,,,,,,,,,,,,,,,,,,,,,,,,/muse/elements/jaw_clench
2020-03-09 16:17:59.256,0.38632855,0.0,-1.2951279,0.37066895,0.35896456,0.0,-2.138334,0.41132355,0.6258247,0.0,-1.137125,0.6763068,0.3815647,0.0,-1.245972,0.37368917,-0.3347656,0.0,-1.3853976,-0.3229967,845.34796,1296.227,1219.6703,836.8865,878.7912,0.0374755859375,0.0867919921875,1.00665283203125,2.22808837890625,-5.360870361328125,-0.6280517578125,1,1.0,4.0,2.0,1.0,65.00
2020-03-09 16:17:59.499,,,,,,,,,,,,,,,,,,,,,,,,,,,,,,,,,,,,,,/muse/elements/jaw_clench
2020-03-09 16:18:00.791,,,,,,,,,,,,,,,,,,,,,,,,,,,,,,,,,,,,,,/muse/elements/jaw_clench
2020-03-09 16:18:01.018,,,,,,,,,,,,,,,,,,,,,,,,,,,,,,,,,,,,,,/muse/elements/jaw_clench
2020-03-09 16:18:01.304,0.6216412,0.0,-1.2951279,0.54341704,0.6240694,0.0,-2.138334,0.61078954,0.54712695,0.0,-1.137125,0.43081746,0.24168533,0.0,-1.245972,0.06889547,-0.13211314,0.0,-1.3853976,-0.17454773,765.9707,855.42126,808.68134,763.1502,626.9597,0.039794921875,0.08917236328125,1.00689697265625,2.429962158203125,-4.837493896484375,-1.188812255859375,1,1.0,4.0,2.0,1.0,65.00
2020-03-09 16:18:02.582,,,,,,,,,,,,,,,,,,,,,,,,,,,,,,,,,,,,,,/muse/elements/jaw_clench
2020-03-09 16:18:03.113,,,,,,,,,,,,,,,,,,,,,,,,,,,,,,,,,,,,,,/muse/elements/jaw_clench
2020-03-09 16:18:03.327,,,,,,,,,,,,,,,,,,,,,,,,,,,,,,,,,,,,,,/muse/elements/jaw_clench
2020-03-09 16:18:03.329,0.1251234,0.0,-1.2951279,0.20490281,0.24844114,0.0,-2.138334,0.45166185,0.46700165,0.0,-1.137125,0.5095032,-0.035820015,0.0,-1.245972,-0.0033146495,-0.1538432,0.0,-1.3853976,-0.24184431,756.7033,535.09155,554.83514,751.8681,629.7802,0.0389404296875,0.08880615234375,1.00732421875,2.190704345703125,-5.18890380859375,-0.88226318359375,1,1.0,4.0,2.0,1.0,65.00
2020-03-09 16:18:03.817,,,,,,,,,,,,,,,,,,,,,,,,,,,,,,,,,,,,,,/muse/elements/jaw_clench
2020-03-09 16:18:04.069,,,,,,,,,,,,,,,,,,,,,,,,,,,,,,,,,,,,,,/muse/elements/jaw_clench
2020-03-09 16:18:04.735,,,,,,,,,,,,,,,,,,,,,,,,,,,,,,,,,,,,,,/muse/elements/jaw_clench
2020-03-09 16:18:05.331,0.9706935,0.0,-1.2951279,0.97959375,0.62629414,0.0,-2.138334,0.5732356,0.41889182,0.0,-1.137125,0.43199024,0.19938828,0.0,-1.245972,0.3297233,-0.21297868,0.0,-1.3853976,-0.15242419,798.20514,911.8315,934.3956,811.0989,908.60803,0.036865234375,0.09051513671875,1.01190185546875,1.79443359375,-4.942169189453125,-1.547698974609375,1,1.0,4.0,2.0,1.0,65.00
2020-03-09 16:18:05.636,,,,,,,,,,,,,,,,,,,,,,,,,,,,,,,,,,,,,,/muse/elements/jaw_clench
2020-03-09 16:18:05.975,,,,,,,,,,,,,,,,,,,,,,,,,,,,,,,,,,,,,,/muse/elements/blink
2020-03-09 16:18:06.273,,,,,,,,,,,,,,,,,,,,,,,,,,,,,,,,,,,,,,/muse/elements/jaw_clench
2020-03-09 16:18:06.820,,,,,,,,,,,,,,,,,,,,,,,,,,,,,,,,,,,,,,/muse/elements/jaw_clench
2020-03-09 16:18:07.299,,,,,,,,,,,,,,,,,,,,,,,,,,,,,,,,,,,,,,/muse/elements/jaw_clench
2020-03-09 16:18:07.374,0.5529609,0.0,-1.2951279,0.78550667,0.7615807,0.0,-2.138334,0.57590353,0.58534306,0.0,-1.137125,0.4856184,0.12018374,0.0,-1.245972,0.20177822,-0.23459315,0.0,-1.3853976,-0.2557122,844.5421,1310.7325,1232.967,835.2747,831.6484,0.04010009765625,0.0919189453125,1.00836181640625,2.16827392578125,-5.51788330078125,-1.188812255859375,1,1.0,4.0,2.0,1.0,65.00
2020-03-09 16:18:07.903,,,,,,,,,,,,,,,,,,,,,,,,,,,,,,,,,,,,,,/muse/elements/jaw_clench
2020-03-09 16:18:09.293,,,,,,,,,,,,,,,,,,,,,,,,,,,,,,,,,,,,,,/muse/elements/jaw_clench
2020-03-09 16:18:09.397,0.29764795,0.0,-1.2951279,0.2503459,0.5650287,0.0,-2.138334,0.6529098,0.7774787,0.0,-1.137125,0.7906495,-0.044025507,0.0,-1.245972,0.118846186,-0.23106472,0.0,-1.3853976,-0.029570257,842.9304,1313.956,1203.5531,839.707,903.36993,0.04473876953125,0.08740234375,1.00921630859375,2.6318359375,-5.4132080078125,-0.844879150390625,1,1.0,4.0,4.0,1.0,65.00
2020-03-09 16:18:10.663,,,,,,,,,,,,,,,,,,,,,,,,,,,,,,,,,,,,,,/muse/elements/jaw_clench
2020-03-09 16:18:11.414,1.0517008,0.0,-1.2951279,0.7030134,0.5105899,0.0,-2.138334,0.5811681,0.20445031,0.0,-1.137125,0.48592374,0.3031574,0.0,-1.245972,0.17716259,-0.18197753,0.0,-1.3853976,-0.29526025,766.3736,759.5238,660.0,774.0293,580.2198,0.04052734375,0.088134765625,1.005859375,2.115936279296875,-5.226287841796875,-1.368255615234375,1,1.0,4.0,2.0,1.0,65.00
2020-03-09 16:18:11.554,,,,,,,,,,,,,,,,,,,,,,,,,,,,,,,,,,,,,,/muse/elements/jaw_clench
2020-03-09 16:18:11.804,,,,,,,,,,,,,,,,,,,,,,,,,,,,,,,,,,,,,,/muse/elements/jaw_clench
2020-03-09 16:18:12.050,,,,,,,,,,,,,,,,,,,,,,,,,,,,,,,,,,,,,,/muse/elements/jaw_clench
2020-03-09 16:18:12.256,,,,,,,,,,,,,,,,,,,,,,,,,,,,,,,,,,,,,,/muse/elements/jaw_clench
2020-03-09 16:18:12.440,,,,,,,,,,,,,,,,,,,,,,,,,,,,,,,,,,,,,,/muse/elements/jaw_clench
2020-03-09 16:18:13.253,,,,,,,,,,,,,,,,,,,,,,,,,,,,,,,,,,,,,,/muse/elements/jaw_clench
2020-03-09 16:18:13.449,0.39052588,0.0,-1.2951279,0.36498573,0.6353721,0.0,-2.138334,0.4564297,0.974464,0.0,-1.137125,0.73403406,0.49597362,0.0,-1.245972,0.39822245,-0.030653713,0.0,-1.3853976,0.039894808,790.54944,807.0696,769.19415,792.5641,757.50916,0.04315185546875,0.08984375,1.00201416015625,1.981353759765625,-5.360870361328125,-0.515899658203125,1,1.0,4.0,2.0,1.0,65.00
2020-03-09 16:18:13.514,,,,,,,,,,,,,,,,,,,,,,,,,,,,,,,,,,,,,,/muse/elements/jaw_clench
2020-03-09 16:18:14.012,,,,,,,,,,,,,,,,,,,,,,,,,,,,,,,,,,,,,,/muse/elements/jaw_clench
2020-03-09 16:18:14.539,,,,,,,,,,,,,,,,,,,,,,,,,,,,,,,,,,,,,,/muse/elements/jaw_clench
2020-03-09 16:18:15.000,,,,,,,,,,,,,,,,,,,,,,,,,,,,,,,,,,,,,,/muse/elements/jaw_clench
2020-03-09 16:18:15.293,,,,,,,,,,,,,,,,,,,,,,,,,,,,,,,,,,,,,,/muse/elements/jaw_clench
2020-03-09 16:18:15.462,0.20779029,0.0,-1.2951279,0.20188121,0.28992647,0.0,-2.138334,0.39383623,0.35848796,0.0,-1.137125,0.400259,0.30795023,0.0,-1.245972,0.15708795,-0.2494055,0.0,-1.3853976,-0.15643428,759.5238,732.52747,731.31866,771.2088,722.8571,0.03997802734375,0.08843994140625,1.00164794921875,1.854248046875,-5.30853271484375,-1.114044189453125,1,1.0,4.0,2.0,1.0,65.00
2020-03-09 16:18:17.482,-0.19411702,0.0,-1.2951279,0.07741815,0.49684778,0.0,-2.138334,0.5095944,0.47244388,0.0,-1.137125,0.63667065,0.09987245,0.0,-1.245972,0.22628658,-0.109343745,0.0,-1.3853976,-0.1464744,822.381,1082.2711,981.9414,815.9341,657.5824,0.04156494140625,0.092041015625,1.00775146484375,1.854248046875,-5.42816162109375,-0.456085205078125,1,1.0,4.0,2.0,1.0,65.00
2020-03-09 16:18:18.123,,,,,,,,,,,,,,,,,,,,,,,,,,,,,,,,,,,,,,/muse/elements/jaw_clench
2020-03-09 16:18:19.018,,,,,,,,,,,,,,,,,,,,,,,,,,,,,,,,,,,,,,/muse/elements/jaw_clench
2020-03-09 16:18:19.501,-0.020890828,0.0,-1.2951279,0.060857933,0.15438902,0.0,-2.138334,0.2032825,0.6335625,0.0,-1.137125,0.52980584,0.30048463,0.0,-1.245972,0.24270786,-0.2532155,0.0,-1.3853976,-0.12999743,829.6337,1052.0513,1005.7143,832.4542,799.011,0.0382080078125,0.091064453125,1.01220703125,2.549591064453125,-5.14404296875,-0.94207763671875,1,1.0,4.0,2.0,1.0,65.00
2020-03-09 16:18:20.559,,,,,,,,,,,,,,,,,,,,,,,,,,,,,,,,,,,,,,/muse/elements/jaw_clench
2020-03-09 16:18:20.960,,,,,,,,,,,,,,,,,,,,,,,,,,,,,,,,,,,,,,/muse/elements/jaw_clench
2020-03-09 16:18:21.523,0.18621872,0.0,-1.2951279,0.23709783,0.38109648,0.0,-2.138334,0.5027584,0.40340087,0.0,-1.137125,0.16014567,0.23104532,0.0,-1.245972,0.36283618,0.083890654,0.0,-1.3853976,0.07363271,832.0513,1102.4176,1022.6374,830.0366,820.7692,0.04364013671875,0.09051513671875,1.01025390625,2.145843505859375,-5.33843994140625,-1.069183349609375,1,1.0,4.0,2.0,1.0,65.00
2020-03-09 16:18:22.175,,,,,,,,,,,,,,,,,,,,,,,,,,,,,,,,,,,,,,/muse/elements/jaw_clench
2020-03-09 16:18:22.776,,,,,,,,,,,,,,,,,,,,,,,,,,,,,,,,,,,,,,/muse/elements/jaw_clench
2020-03-09 16:18:23.115,,,,,,,,,,,,,,,,,,,,,,,,,,,,,,,,,,,,,,/muse/elements/jaw_clench
2020-03-09 16:18:23.567,0.4953949,0.0,-1.2951279,0.5817157,0.46862313,0.0,-2.138334,0.2752337,0.55604434,0.0,-1.137125,0.6775763,0.16533142,0.0,-1.245972,0.34317833,-0.017967762,0.0,-1.3853976,-0.116673455,770.80585,557.6557,571.3553,765.16486,648.71796,0.03936767578125,0.09228515625,1.00836181640625,2.34771728515625,-4.53094482421875,-1.016845703125,1,1.0,4.0,2.0,1.0,65.00
2020-03-09 16:18:23.647,,,,,,,,,,,,,,,,,,,,,,,,,,,,,,,,,,,,,,/muse/elements/jaw_clench
2020-03-09 16:18:24.634,,,,,,,,,,,,,,,,,,,,,,,,,,,,,,,,,,,,,,/muse/elements/jaw_clench
2020-03-09 16:18:25.080,,,,,,,,,,,,,,,,,,,,,,,,,,,,,,,,,,,,,,/muse/elements/jaw_clench
2020-03-09 16:18:25.309,,,,,,,,,,,,,,,,,,,,,,,,,,,,,,,,,,,,,,/muse/elements/jaw_clench
2020-03-09 16:18:25.614,-0.17677514,0.0,-1.2951279,-0.35529813,0.31243858,0.0,-2.138334,0.22543284,0.4847051,0.0,-1.137125,0.48025063,0.22385725,0.0,-1.245972,0.3657696,-0.21038027,0.0,-1.3853976,-0.22131583,835.6777,581.8315,716.8132,843.73627,1133.0403,0.0399169921875,0.08489990234375,1.01361083984375,2.415008544921875,-4.725341796875,-0.95703125,1,1.0,4.0,2.0,1.0,65.00
2020-03-09 16:18:27.206,,,,,,,,,,,,,,,,,,,,,,,,,,,,,,,,,,,,,,/muse/elements/jaw_clench
2020-03-09 16:18:27.625,-0.0034319505,0.0,-1.2951279,-0.06394733,0.28357553,0.0,-2.138334,0.025809173,0.63270307,0.0,-1.137125,0.68762946,0.23570524,0.0,-1.245972,0.19500293,-0.08831656,0.0,-1.3853976,-0.19036888,763.1502,785.31134,714.3956,760.32965,545.9707,0.0439453125,0.08477783203125,1.005615234375,1.86920166015625,-5.286102294921875,-1.1962890625,1,1.0,4.0,2.0,1.0,65.00
2020-03-09 16:18:28.657,,,,,,,,,,,,,,,,,,,,,,,,,,,,,,,,,,,,,,/muse/elements/jaw_clench
2020-03-09 16:18:28.766,,,,,,,,,,,,,,,,,,,,,,,,,,,,,,,,,,,,,,/muse/elements/jaw_clench
2020-03-09 16:18:29.496,,,,,,,,,,,,,,,,,,,,,,,,,,,,,,,,,,,,,,/muse/elements/jaw_clench
2020-03-09 16:18:29.633,-0.04234097,0.0,-1.2951279,0.10156488,0.27421126,0.0,-2.138334,0.41728464,0.518343,0.0,-1.137125,0.5199668,0.21629496,0.0,-1.245972,0.20023552,-0.14049548,0.0,-1.3853976,-0.41118276,815.12823,941.2454,940.4396,826.8132,894.10254,0.04278564453125,0.08782958984375,1.0030517578125,2.0037841796875,-5.615081787109375,-1.054229736328125,1,1.0,4.0,2.0,1.0,65.00
2020-03-09 16:18:30.067,,,,,,,,,,,,,,,,,,,,,,,,,,,,,,,,,,,,,,/muse/elements/jaw_clench
2020-03-09 16:18:30.217,,,,,,,,,,,,,,,,,,,,,,,,,,,,,,,,,,,,,,/muse/elements/jaw_clench
2020-03-09 16:18:30.995,,,,,,,,,,,,,,,,,,,,,,,,,,,,,,,,,,,,,,/muse/elements/jaw_clench
2020-03-09 16:18:31.475,,,,,,,,,,,,,,,,,,,,,,,,,,,,,,,,,,,,,,/muse/elements/jaw_clench
2020-03-09 16:18:31.656,0.4458571,0.0,-1.2951279,0.57298315,0.61161155,0.0,-2.138334,0.43618008,0.65277964,0.0,-1.137125,0.6114939,0.2586657,0.0,-1.245972,0.32436714,-0.3734739,0.0,-1.3853976,-0.2776834,828.022,1182.6007,1124.1758,820.7692,719.6337,0.03460693359375,0.086669921875,1.00732421875,2.04864501953125,-5.226287841796875,-0.9869384765625,1,1.0,4.0,2.0,1.0,65.00
2020-03-09 16:18:32.797,,,,,,,,,,,,,,,,,,,,,,,,,,,,,,,,,,,,,,/muse/elements/jaw_clench
2020-03-09 16:18:33.117,,,,,,,,,,,,,,,,,,,,,,,,,,,,,,,,,,,,,,/muse/elements/jaw_clench
2020-03-09 16:18:33.726,0.57026315,0.0,-1.2951279,0.37632713,0.412519,0.0,-2.138334,0.5288733,0.4774452,0.0,-1.137125,0.39009053,0.22395353,0.0,-1.245972,0.22528572,-0.27743018,0.0,-1.3853976,-0.15734956,772.8205,1074.2124,975.89746,775.64105,732.1245,0.0386962890625,0.085693359375,1.0047607421875,2.55706787109375,-5.286102294921875,-0.800018310546875,1,1.0,4.0,2.0,1.0,60.00
2020-03-09 16:18:34.030,,,,,,,,,,,,,,,,,,,,,,,,,,,,,,,,,,,,,,/muse/elements/jaw_clench
2020-03-09 16:18:35.205,,,,,,,,,,,,,,,,,,,,,,,,,,,,,,,,,,,,,,/muse/elements/jaw_clench
2020-03-09 16:18:35.758,0.74370956,0.0,-1.2951279,1.0678444,0.620299,0.0,-2.138334,0.55856085,0.5270903,0.0,-1.137125,0.5794043,0.19040816,0.0,-1.245972,0.14124987,-0.18336949,0.0,-1.3853976,-0.042411614,796.1905,717.2161,669.2674,788.1319,734.1392,0.03851318359375,0.08880615234375,1.01348876953125,2.2430419921875,-5.24871826171875,-0.904693603515625,1,1.0,4.0,2.0,1.0,60.00
2020-03-09 16:18:35.911,,,,,,,,,,,,,,,,,,,,,,,,,,,,,,,,,,,,,,/muse/elements/jaw_clench
2020-03-09 16:18:36.693,,,,,,,,,,,,,,,,,,,,,,,,,,,,,,,,,,,,,,/muse/elements/jaw_clench
2020-03-09 16:18:37.143,,,,,,,,,,,,,,,,,,,,,,,,,,,,,,,,,,,,,,/muse/elements/jaw_clench
2020-03-09 16:18:37.810,1.1678803,0.0,-1.2951279,1.055745,0.6099476,0.0,-2.138334,0.62068504,0.37706417,0.0,-1.137125,0.3396208,0.050401222,0.0,-1.245972,0.31904513,-0.29388672,0.0,-1.3853976,-0.09540318,764.7619,773.6264,693.44324,769.59705,620.10986,0.041748046875,0.08953857421875,1.00750732421875,2.145843505859375,-4.658050537109375,-0.64300537109375,1,1.0,4.0,2.0,1.0,60.00
2020-03-09 16:18:38.124,,,,,,,,,,,,,,,,,,,,,,,,,,,,,,,,,,,,,,/muse/elements/jaw_clench
2020-03-09 16:18:38.435,,,,,,,,,,,,,,,,,,,,,,,,,,,,,,,,,,,,,,/muse/elements/jaw_clench
2020-03-09 16:18:38.791,,,,,,,,,,,,,,,,,,,,,,,,,,,,,,,,,,,,,,/muse/elements/jaw_clench
2020-03-09 16:18:39.395,,,,,,,,,,,,,,,,,,,,,,,,,,,,,,,,,,,,,,/muse/elements/jaw_clench
2020-03-09 16:18:39.839,0.4483605,0.0,-1.2951279,0.6465517,0.45674193,0.0,-2.138334,0.5614526,0.528546,0.0,-1.137125,0.38045534,0.22654547,0.0,-1.245972,0.29703647,-0.06377726,0.0,-1.3853976,-0.21675591,774.43225,660.80585,635.0183,766.77655,623.73627,0.04168701171875,0.08905029296875,1.0072021484375,1.92901611328125,-4.88983154296875,-0.91217041015625,1,1.0,4.0,2.0,1.0,60.00
2020-03-09 16:18:40.459,,,,,,,,,,,,,,,,,,,,,,,,,,,,,,,,,,,,,,/muse/elements/jaw_clench
2020-03-09 16:18:41.289,,,,,,,,,,,,,,,,,,,,,,,,,,,,,,,,,,,,,,/muse/elements/jaw_clench
2020-03-09 16:18:41.501,,,,,,,,,,,,,,,,,,,,,,,,,,,,,,,,,,,,,,/muse/elements/jaw_clench
2020-03-09 16:18:41.859,0.70275724,0.0,-1.2951279,0.93092054,0.21818195,0.0,-2.138334,0.46711013,0.107488096,0.0,-1.137125,0.27075994,0.31575367,0.0,-1.245972,0.34336588,-0.12327432,0.0,-1.3853976,-0.09630347,772.01465,859.0476,770.80585,770.80585,551.2088,0.044921875,0.0863037109375,1.0029296875,2.3028564453125,-4.807586669921875,-1.158905029296875,1,1.0,4.0,2.0,1.0,60.00
2020-03-09 16:18:42.234,,,,,,,,,,,,,,,,,,,,,,,,,,,,,,,,,,,,,,/muse/elements/jaw_clench
2020-03-09 16:18:42.867,,,,,,,,,,,,,,,,,,,,,,,,,,,,,,,,,,,,,,/muse/elements/jaw_clench
2020-03-09 16:18:43.398,,,,,,,,,,,,,,,,,,,,,,,,,,,,,,,,,,,,,,/muse/elements/jaw_clench
2020-03-09 16:18:43.801,,,,,,,,,,,,,,,,,,,,,,,,,,,,,,,,,,,,,,/muse/elements/jaw_clench
2020-03-09 16:18:43.863,1.2039073,0.0,-1.2951279,1.22997,0.40514165,0.0,-2.138334,0.59941256,0.42037383,0.0,-1.137125,0.607142,0.20538159,0.0,-1.245972,0.16477706,-0.19377054,0.0,-1.3853976,-0.1495194,764.35895,722.4542,729.707,771.2088,709.5604,0.04437255859375,0.0855712890625,1.009033203125,2.64678955078125,-4.97955322265625,-1.06170654296875,1,1.0,4.0,2.0,1.0,65.00
2020-03-09 16:18:44.470,,,,,,,,,,,,,,,,,,,,,,,,,,,,,,,,,,,,,,/muse/elements/jaw_clench
2020-03-09 16:18:44.818,,,,,,,,,,,,,,,,,,,,,,,,,,,,,,,,,,,,,,/muse/elements/jaw_clench
2020-03-09 16:18:45.271,,,,,,,,,,,,,,,,,,,,,,,,,,,,,,,,,,,,,,/muse/elements/jaw_clench
2020-03-09 16:18:45.880,,,,,,,,,,,,,,,,,,,,,,,,,,,,,,,,,,,,,,/muse/elements/jaw_clench
2020-03-09 16:18:45.882,0.29969555,0.0,-1.2951279,0.4399906,0.08251517,0.0,-2.138334,0.29245615,0.3485856,0.0,-1.137125,0.19909503,0.18631707,0.0,-1.245972,0.25060353,-0.14768152,0.0,-1.3853976,-0.14760344,772.8205,842.52747,814.3223,764.7619,669.2674,0.034912109375,0.0855712890625,1.01300048828125,2.1832275390625,-5.091705322265625,-0.919647216796875,1,1.0,4.0,2.0,1.0,65.00
2020-03-09 16:18:45.969,,,,,,,,,,,,,,,,,,,,,,,,,,,,,,,,,,,,,,/muse/elements/blink
2020-03-09 16:18:47.795,,,,,,,,,,,,,,,,,,,,,,,,,,,,,,,,,,,,,,/muse/elements/jaw_clench
2020-03-09 16:18:47.898,1.0804833,0.0,-1.2951279,0.79522973,0.56420714,0.0,-2.138334,0.54790455,0.32902372,0.0,-1.137125,0.6712717,0.14293145,0.0,-1.245972,0.1268713,-0.18053602,0.0,-1.3853976,-0.050434083,741.79486,770.80585,710.7692,748.6447,545.9707,0.0438232421875,0.0897216796875,1.006103515625,2.452392578125,-4.6954345703125,-0.725250244140625,1,1.0,4.0,2.0,1.0,65.00
2020-03-09 16:18:48.784,,,,,,,,,,,,,,,,,,,,,,,,,,,,,,,,,,,,,,/muse/elements/jaw_clench
2020-03-09 16:18:49.932,1.2326294,0.0,-1.2951279,0.9735755,0.7142031,0.0,-2.138334,0.87586486,0.37249812,0.0,-1.137125,0.38827744,0.15246512,0.0,-1.245972,0.10209916,-0.21966569,0.0,-1.3853976,-0.04742804,802.23444,917.0696,895.7143,812.71063,784.5055,0.0428466796875,0.085205078125,1.00762939453125,1.816864013671875,-4.777679443359375,-1.039276123046875,1,1.0,4.0,2.0,1.0,65.00
2020-03-09 16:18:49.935,,,,,,,,,,,,,,,,,,,,,,,,,,,,,,,,,,,,,,/muse/elements/blink
2020-03-09 16:18:50.408,,,,,,,,,,,,,,,,,,,,,,,,,,,,,,,,,,,,,,/muse/elements/jaw_clench
2020-03-09 16:18:51.794,,,,,,,,,,,,,,,,,,,,,,,,,,,,,,,,,,,,,,/muse/elements/jaw_clench
2020-03-09 16:18:51.966,0.54913414,0.0,-1.2951279,0.36379156,0.18060261,0.0,-2.138334,0.33090353,0.51517624,0.0,-1.137125,0.37241155,0.13202974,0.0,-1.245972,0.2612724,-0.19503929,0.0,-1.3853976,-0.28144026,776.8498,730.9158,734.5421,778.46155,736.1539,0.0423583984375,0.090576171875,1.01080322265625,2.011260986328125,-5.271148681640625,-0.904693603515625,1,1.0,4.0,4.0,1.0,65.00
2020-03-09 16:18:52.409,,,,,,,,,,,,,,,,,,,,,,,,,,,,,,,,,,,,,,/muse/elements/jaw_clench
2020-03-09 16:18:52.570,,,,,,,,,,,,,,,,,,,,,,,,,,,,,,,,,,,,,,/muse/elements/jaw_clench
2020-03-09 16:18:53.277,,,,,,,,,,,,,,,,,,,,,,,,,,,,,,,,,,,,,,/muse/elements/jaw_clench
2020-03-09 16:18:54.007,1.0277549,0.0,-1.2951279,0.93522996,0.3797025,0.0,-2.138334,0.3904987,0.5168963,0.0,-1.137125,0.24119164,0.24151164,0.0,-1.245972,0.17139365,-0.3353912,0.0,-1.3853976,-0.14936353,805.8608,910.2198,871.13556,797.8022,751.4652,0.04248046875,0.08551025390625,1.0042724609375,2.10845947265625,-5.211334228515625,-0.770111083984375,1,1.0,4.0,2.0,1.0,70.00
2020-03-09 16:18:54.375,,,,,,,,,,,,,,,,,,,,,,,,,,,,,,,,,,,,,,/muse/elements/jaw_clench
2020-03-09 16:18:55.024,,,,,,,,,,,,,,,,,,,,,,,,,,,,,,,,,,,,,,/muse/elements/jaw_clench
2020-03-09 16:18:55.311,,,,,,,,,,,,,,,,,,,,,,,,,,,,,,,,,,,,,,/muse/elements/jaw_clench
2020-03-09 16:18:56.029,0.37398824,0.0,-1.2951279,0.2489002,0.17116864,0.0,-2.138334,-0.07521576,0.37418583,0.0,-1.137125,0.193725,0.16285586,0.0,-1.245972,0.20974231,-0.15593119,0.0,-1.3853976,-0.014833405,834.0659,1100.403,1051.6483,828.8278,801.02563,0.0428466796875,0.0889892578125,1.00091552734375,2.310333251953125,-4.269256591796875,-1.375732421875,1,1.0,4.0,2.0,1.0,70.00
2020-03-09 16:18:56.033,,,,,,,,,,,,,,,,,,,,,,,,,,,,,,,,,,,,,,/muse/elements/jaw_clench
2020-03-09 16:18:56.213,,,,,,,,,,,,,,,,,,,,,,,,,,,,,,,,,,,,,,/muse/elements/jaw_clench
2020-03-09 16:18:57.164,,,,,,,,,,,,,,,,,,,,,,,,,,,,,,,,,,,,,,/muse/elements/jaw_clench
2020-03-09 16:18:57.779,,,,,,,,,,,,,,,,,,,,,,,,,,,,,,,,,,,,,,/muse/elements/jaw_clench
2020-03-09 16:18:57.965,,,,,,,,,,,,,,,,,,,,,,,,,,,,,,,,,,,,,,/muse/elements/jaw_clench
2020-03-09 16:18:58.061,0.6234542,0.0,-1.2951279,0.67569876,0.4732732,0.0,-2.138334,0.47577432,0.6521931,0.0,-1.137125,0.44158825,0.20103833,0.0,-1.245972,0.36506605,-0.18530282,0.0,-1.3853976,-0.14231203,839.707,1106.044,1081.0623,830.0366,813.91943,0.04132080078125,0.086669921875,1.012451171875,2.13836669921875,-4.68048095703125,-0.79254150390625,1,1.0,4.0,2.0,1.0,70.00
2020-03-09 16:18:58.268,,,,,,,,,,,,,,,,,,,,,,,,,,,,,,,,,,,,,,/muse/elements/jaw_clench
2020-03-09 16:19:00.069,0.7272782,0.0,-1.2951279,0.7207491,0.35469526,0.0,-2.138334,0.33191887,0.62234694,0.0,-1.137125,0.45135018,0.2381354,0.0,-1.245972,0.27929083,-0.19154108,0.0,-1.3853976,-0.21187654,815.12823,570.9524,653.5531,807.0696,815.12823,0.0384521484375,0.0904541015625,1.01129150390625,2.4822998046875,-5.15899658203125,-1.00189208984375,1,1.0,4.0,2.0,1.0,70.00
2020-03-09 16:19:00.103,,,,,,,,,,,,,,,,,,,,,,,,,,,,,,,,,,,,,,/muse/elements/jaw_clench
2020-03-09 16:19:02.093,0.80200934,0.0,-1.2951279,0.90698254,0.24502721,0.0,-2.138334,0.36066315,0.22642365,0.0,-1.137125,0.34074256,0.010458158,0.0,-1.245972,0.14081618,-0.22282863,0.0,-1.3853976,-0.15499634,807.0696,888.86444,879.19415,805.8608,860.2564,0.04449462890625,0.0867919921875,1.00640869140625,2.73651123046875,-5.24871826171875,-1.009368896484375,1,1.0,4.0,2.0,1.0,70.00
2020-03-09 16:19:03.254,,,,,,,,,,,,,,,,,,,,,,,,,,,,,,,,,,,,,,/muse/elements/jaw_clench
2020-03-09 16:19:04.108,0.02377499,0.0,-1.2951279,0.3914149,0.021851461,0.0,-2.138334,0.27651426,0.4893324,0.0,-1.137125,0.25394353,0.09298122,0.0,-1.245972,0.14787526,-0.2817195,0.0,-1.3853976,-0.04153131,788.93774,679.7436,657.1795,788.1319,664.83514,0.036865234375,0.0904541015625,1.0120849609375,2.100982666015625,-4.97955322265625,-1.413116455078125,1,1.0,4.0,2.0,1.0,65.00
2020-03-09 16:19:04.803,,,,,,,,,,,,,,,,,,,,,,,,,,,,,,,,,,,,,,/muse/elements/jaw_clench
2020-03-09 16:19:05.199,,,,,,,,,,,,,,,,,,,,,,,,,,,,,,,,,,,,,,/muse/elements/jaw_clench
2020-03-09 16:19:05.373,,,,,,,,,,,,,,,,,,,,,,,,,,,,,,,,,,,,,,/muse/elements/jaw_clench
2020-03-09 16:19:05.711,,,,,,,,,,,,,,,,,,,,,,,,,,,,,,,,,,,,,,/muse/elements/jaw_clench
2020-03-09 16:19:06.161,0.06789818,0.0,-1.2951279,0.120804526,0.3218687,0.0,-2.138334,0.20229736,0.12984805,0.0,-1.137125,0.20928815,0.04422745,0.0,-1.245972,0.23389104,-0.16612503,0.0,-1.3853976,-0.20391792,824.7985,1184.6154,1149.9634,831.2454,890.87915,0.0428466796875,0.08782958984375,1.0089111328125,2.04864501953125,-4.90478515625,-1.173858642578125,1,1.0,4.0,2.0,1.0,65.00
2020-03-09 16:19:06.376,,,,,,,,,,,,,,,,,,,,,,,,,,,,,,,,,,,,,,/muse/elements/jaw_clench
2020-03-09 16:19:07.521,,,,,,,,,,,,,,,,,,,,,,,,,,,,,,,,,,,,,,/muse/elements/jaw_clench
2020-03-09 16:19:07.792,,,,,,,,,,,,,,,,,,,,,,,,,,,,,,,,,,,,,,/muse/elements/jaw_clench
